%OpenBCI Raw EXG Data
%Number of channels = 4
%Sample Rate = 200 Hz
%Board = OpenBCI_GUI$BoardGanglionNative
Sample Index, EXG Channel 0, EXG Channel 1, EXG Channel 2, EXG Channel 3, Accel Channel 0, Accel Channel 1, Accel Channel 2, Other, Other, Other, Other, Other, Timestamp, Marker Channel, Timestamp (Formatted)
0.0, 91.45551351644099, 227.40648675570264, 16.584586353506893, -34.255613644141704, 0.0, 0.0, 0.0, 0.0, 0.0, 0.0, 0.0, 0.0, 1.7398942566603816E9, 0.0, 2025-02-18 15:57:36.660
1.0, 87.80911105964333, 223.83488229801878, 11.06449401890859, -49.77245856029913, 0.0, -0.2240000106394291, 0.0, 0.0, 0.0, 0.0, 0.0, 0.0, 1.739894256660988E9, 0.0, 2025-02-18 15:57:36.660
1.0, 255.9157441179268, 394.7875792225823, 2.8853328158147633, -10.754082322586328, 0.0, -0.2240000106394291, 0.0, 0.0, 0.0, 0.0, 0.0, 0.0, 1.7398942566613157E9, 0.0, 2025-02-18 15:57:36.661
2.0, 263.6236779266037, 389.21138838864863, 12.571673701051623, 16.053520559798926, -0.12800000607967377, -0.2240000106394291, 0.0, 0.0, 0.0, 0.0, 0.0, 0.0, 1.7398942566903985E9, 0.0, 2025-02-18 15:57:36.690
2.0, 94.57832997944206, 223.65910700010136, 13.039161195512861, -21.397837596479803, -0.12800000607967377, -0.2240000106394291, 0.0, 0.0, 0.0, 0.0, 0.0, 0.0, 1.7398942566904545E9, 0.0, 2025-02-18 15:57:36.690
3.0, 76.43981519434601, 216.90484768012539, 12.238822604995221, -36.31255861977115, -0.12800000607967377, -0.2240000106394291, 0.0, 0.0, 0.0, 0.0, 0.0, 0.0, 1.7398942566905634E9, 0.0, 2025-02-18 15:57:36.690
3.0, 239.12359331687912, 387.87624410446733, 7.43679106188938, 6.412058474030346, -0.12800000607967377, -0.2240000106394291, 0.0, 0.0, 0.0, 0.0, 0.0, 0.0, 1.73989425669059E9, 0.0, 2025-02-18 15:57:36.690
4.0, 259.67434357339516, 390.8569443691522, 10.148218529764563, 32.247287367936224, -0.12800000607967377, -0.2240000106394291, 0.0, 0.0, 0.0, 0.0, 0.0, 0.0, 1.7398942566910057E9, 0.0, 2025-02-18 15:57:36.691
4.0, 98.378068334423, 233.3491877852939, 12.511835301760584, -5.940831079613417, -0.12800000607967377, -0.2240000106394291, 0.0, 0.0, 0.0, 0.0, 0.0, 0.0, 1.7398942566910365E9, 0.0, 2025-02-18 15:57:36.691
5.0, 92.12495560850948, 223.03454370750114, 11.416044614743441, -34.588464740198106, -0.12800000607967377, -0.2240000106394291, 0.0, 0.0, 0.0, 0.0, 0.0, 0.0, 1.7398942566921835E9, 0.0, 2025-02-18 15:57:36.692
5.0, 259.4686490758322, 395.7786527108401, 8.981369743589312, 2.735736817587167, -0.12800000607967377, -0.2240000106394291, 0.0, 0.0, 0.0, 0.0, 0.0, 0.0, 1.7398942566922164E9, 0.0, 2025-02-18 15:57:36.692
6.0, 284.967286973726, 410.48019943665713, 9.84528663335368, 24.677729857619852, -0.12800000607967377, -0.2240000106394291, 0.0, 0.0, 0.0, 0.0, 0.0, 0.0, 1.739894256720076E9, 0.0, 2025-02-18 15:57:36.720
6.0, 112.59716796595603, 240.282962303143, 12.212643305305392, 0.48431704426184297, -0.12800000607967377, -0.2240000106394291, 0.0, 0.0, 0.0, 0.0, 0.0, 0.0, 1.7398942567201407E9, 0.0, 2025-02-18 15:57:36.720
7.0, 82.32641772460192, 215.84645599266514, 11.154251617845148, -11.517021913547069, -0.12800000607967377, -0.2240000106394291, 0.0, 0.0, 0.0, 0.0, 0.0, 0.0, 1.739894256720637E9, 0.0, 2025-02-18 15:57:36.720
7.0, 247.57202731678262, 389.20764848869294, 12.317360504064709, 32.87185066053644, -0.12800000607967377, -0.2240000106394291, 0.0, 0.0, 0.0, 0.0, 0.0, 0.0, 1.7398942567206657E9, 0.0, 2025-02-18 15:57:36.720
8.0, 270.0301265507005, 406.32517058588564, 17.48964214278385, 48.42235467629507, -0.12800000607967377, -0.2240000106394291, 0.0, 0.0, 0.0, 0.0, 0.0, 0.0, 1.7398942567499275E9, 0.0, 2025-02-18 15:57:36.749
8.0, 91.54153121542186, 230.51060371892527, 11.128072318155318, 9.213243540842086, -0.12800000607967377, -0.2240000106394291, 0.0, 0.0, 0.0, 0.0, 0.0, 0.0, 1.739894256750021E9, 0.0, 2025-02-18 15:57:36.750
9.0, 64.41603683680296, 206.40320860454813, 9.85276643326506, -14.228449381422251, -0.12800000607967377, -0.2240000106394291, 0.0, 0.0, 0.0, 0.0, 0.0, 0.0, 1.7398942567504287E9, 0.0, 2025-02-18 15:57:36.750
9.0, 228.96228513726965, 373.26445497758687, 16.506048454437405, 39.94400147674605, -0.12800000607967377, -0.2240000106394291, 0.0, 0.0, 0.0, 0.0, 0.0, 0.0, 1.7398942567504618E9, 0.0, 2025-02-18 15:57:36.750
10.0, 260.93842975841835, 398.9687873730436, 11.012135419528931, 62.44323961017653, -0.12800000607967377, -0.2240000106394291, 0.9760000463575125, 0.0, 0.0, 0.0, 0.0, 0.0, 1.73989425675099E9, 0.0, 2025-02-18 15:57:36.750
10.0, 85.35947658866644, 226.34061526833102, 14.28080798080191, 15.197083469945937, -0.12800000607967377, -0.2240000106394291, 0.9760000463575125, 0.0, 0.0, 0.0, 0.0, 0.0, 1.7398942567510116E9, 0.0, 2025-02-18 15:57:36.751
11.0, 41.82704110443592, 194.01665995130315, 11.546941113192588, -6.318560975138098, -0.12800000607967377, 0.0, 0.9760000463575125, 0.0, 0.0, 0.0, 0.0, 0.0, 1.7398942567518656E9, 0.0, 2025-02-18 15:57:36.751
11.0, 210.98832595022395, 349.78536305576563, 15.593512865249068, 31.24125427985564, -0.12800000607967377, 0.0, 0.9760000463575125, 0.0, 0.0, 0.0, 0.0, 0.0, 1.7398942567518935E9, 0.0, 2025-02-18 15:57:36.751
12.0, 257.31072680139914, 395.0792914191261, 13.49916889006272, 50.729872948955745, -0.01600000075995922, 0.0, 0.9760000463575125, 0.0, 0.0, 0.0, 0.0, 0.0, 1.7398942567799387E9, 0.0, 2025-02-18 15:57:36.779
12.0, 84.49929959885776, 234.3514809734188, 14.460323178675026, 31.13653708109632, -0.01600000075995922, 0.0, 0.9760000463575125, 0.0, 0.0, 0.0, 0.0, 0.0, 1.7398942567799904E9, 0.0, 2025-02-18 15:57:36.779
13.0, 41.95419770292938, 190.27302009565756, 15.369118867907673, 18.533074230421335, -0.01600000075995922, 0.0, 0.9760000463575125, 0.0, 0.0, 0.0, 0.0, 0.0, 1.739894256780572E9, 0.0, 2025-02-18 15:57:36.780
13.0, 203.8937357342802, 366.11750616226345, 12.493135801982135, 67.69779904792085, -0.01600000075995922, 0.0, 0.9760000463575125, 0.0, 0.0, 0.0, 0.0, 0.0, 1.739894256780614E9, 0.0, 2025-02-18 15:57:36.780
14.0, 249.19888379750773, 396.938021697104, 7.870619456749409, 91.4686031662859, -0.01600000075995922, 0.0, 0.9760000463575125, 0.0, 0.0, 0.0, 0.0, 0.0, 1.7398942568099697E9, 0.0, 2025-02-18 15:57:36.809
14.0, 86.62730267364532, 234.52351637138054, 13.383231991436332, 54.1182223088108, -0.01600000075995922, 0.0, 0.9760000463575125, 0.0, 0.0, 0.0, 0.0, 0.0, 1.73989425681063E9, 0.0, 2025-02-18 15:57:36.810
15.0, 34.53049629088491, 188.253474119585, 13.256075392942876, 33.780646349769086, -0.01600000075995922, 0.0, 0.9760000463575125, 0.0, 0.0, 0.0, 0.0, 0.0, 1.7398942568110635E9, 0.0, 2025-02-18 15:57:36.811
15.0, 210.5208384557627, 360.1710652327165, 14.70715657575056, 73.25903028203174, -0.01600000075995922, 0.0, 0.9760000463575125, 0.0, 0.0, 0.0, 0.0, 0.0, 1.7398942568111033E9, 0.0, 2025-02-18 15:57:36.811
16.0, 265.7329815016128, 402.8657631268725, 9.04494804283604, 74.18278557108715, -0.01600000075995922, 0.0, 0.9760000463575125, 0.0, 0.0, 0.0, 0.0, 0.0, 1.739894256811304E9, 0.0, 2025-02-18 15:57:36.811
16.0, 95.42728726938367, 229.56440903013572, 6.801008069422096, 46.16345510305837, -0.01600000075995922, 0.0, 0.9760000463575125, 0.0, 0.0, 0.0, 0.0, 0.0, 1.7398942568113325E9, 0.0, 2025-02-18 15:57:36.811
17.0, 34.28366289380938, 178.19688313873485, 5.540661784354597, 37.445748306345195, -0.01600000075995922, 0.0, 0.9760000463575125, 0.0, 0.0, 0.0, 0.0, 0.0, 1.7398942568120973E9, 0.0, 2025-02-18 15:57:36.812
17.0, 208.5947899785824, 346.11652119923383, 17.702816440258175, 78.52106951968744, -0.01600000075995922, 0.0, 0.9760000463575125, 0.0, 0.0, 0.0, 0.0, 0.0, 1.7398942568122885E9, 0.0, 2025-02-18 15:57:36.812
18.0, 266.5258402922191, 399.6681486647576, 11.206610217224807, 91.70421686349437, -0.01600000075995922, 0.0, 0.9760000463575125, 0.0, 0.0, 0.0, 0.0, 0.0, 1.7398942568399065E9, 0.0, 2025-02-18 15:57:36.839
18.0, 98.12749503739178, 228.0160904484801, 13.383231991436332, 47.24428619025275, -0.01600000075995922, 0.0, 0.9760000463575125, 0.0, 0.0, 0.0, 0.0, 0.0, 1.7398942568399618E9, 0.0, 2025-02-18 15:57:36.839
19.0, 37.40647935681045, 177.1347515513189, 5.177891488652676, 26.30832623830065, -0.01600000075995922, 0.0, 0.9760000463575125, 0.0, 0.0, 0.0, 0.0, 0.0, 1.7398942568407817E9, 0.0, 2025-02-18 15:57:36.840
19.0, 207.39428209280595, 347.88549387827516, 11.775075010489672, 61.156714025419205, -0.01600000075995922, 0.0, 0.9760000463575125, 0.0, 0.0, 0.0, 0.0, 0.0, 1.7398942568408315E9, 0.0, 2025-02-18 15:57:36.840
20.0, 268.5566059681587, 396.2536200052127, 12.556714101228863, 90.05118108307943, -0.01600000075995922, 0.0, 0.49600002355873585, 0.0, 0.0, 0.0, 0.0, 0.0, 1.7398942568700275E9, 0.0, 2025-02-18 15:57:36.870
20.0, 97.71984594222158, 222.70169261144474, 8.136152353603393, 37.60656400443986, -0.01600000075995922, 0.0, 0.49600002355873585, 0.0, 0.0, 0.0, 0.0, 0.0, 1.739894256870082E9, 0.0, 2025-02-18 15:57:36.870
21.0, 34.93814538605511, 170.7694418267347, 8.805594445671886, 25.91563674295321, -0.01600000075995922, 0.0, 0.49600002355873585, 0.0, 0.0, 0.0, 0.0, 0.0, 1.7398942568702793E9, 0.0, 2025-02-18 15:57:36.870
21.0, 205.28497851779684, 338.95835268404335, 15.46261636679992, 56.44070018129423, -0.01600000075995922, 0.0, 0.49600002355873585, 0.0, 0.0, 0.0, 0.0, 0.0, 1.7398942568703089E9, 0.0, 2025-02-18 15:57:36.870
22.0, 275.35200418764725, 398.6658554766327, 12.137845306191593, 58.392927958164364, -0.01600000075995922, 0.0, 0.49600002355873585, 0.0, 0.0, 0.0, 0.0, 0.0, 1.7398942568710036E9, 0.0, 2025-02-18 15:57:36.871
22.0, 114.5718351425603, 232.15241979947314, 12.373459003400058, 16.532227754127234, -0.01600000075995922, 0.0, 0.49600002355873585, 0.0, 0.0, 0.0, 0.0, 0.0, 1.7398942568711624E9, 0.0, 2025-02-18 15:57:36.871
23.0, 40.21888412348926, 178.57835293421522, 9.617152736056596, -1.2696960349567235, -0.01600000075995922, 0.0, 0.49600002355873585, 0.0, 0.0, 0.0, 0.0, 0.0, 1.739894256871794E9, 0.0, 2025-02-18 15:57:36.871
23.0, 215.14335480099544, 348.6185142695904, 15.361639067996293, 30.32497879071161, -0.01600000075995922, 0.0, 0.49600002355873585, 0.0, 0.0, 0.0, 0.0, 0.0, 1.7398942568718174E9, 0.0, 2025-02-18 15:57:36.871
24.0, 291.4223542972468, 424.8713344661519, 8.958930343855172, 35.19432853301987, -0.01600000075995922, 0.0, 0.49600002355873585, 0.0, 0.0, 0.0, 0.0, 0.0, 1.7398942568999E9, 0.0, 2025-02-18 15:57:36.899
24.0, 123.29328183922917, 253.74286224367097, 1.7409234293736517, -0.562854943331331, -0.01600000075995922, 0.0, 0.49600002355873585, 0.0, 0.0, 0.0, 0.0, 0.0, 1.739894256899948E9, 0.0, 2025-02-18 15:57:36.899
25.0, 40.54799531958997, 186.38352414174005, 8.506402449216694, -27.16476332815364, -0.01600000075995922, 0.0, 0.49600002355873585, 0.0, 0.0, 0.0, 0.0, 0.0, 1.739894256900669E9, 0.0, 2025-02-18 15:57:36.900
25.0, 213.68479381827638, 362.59826030395925, 5.9370911796577275, 17.291427445132285, -0.01600000075995922, 0.0, 0.49600002355873585, 0.0, 0.0, 0.0, 0.0, 0.0, 1.7398942569006972E9, 0.0, 2025-02-18 15:57:36.900
26.0, 292.80611728085205, 434.8830466475338, 17.97582913702354, 28.499907612334937, -0.01600000075995922, 0.0, 0.49600002355873585, 0.0, 0.0, 0.0, 0.0, 0.0, 1.7398942569302208E9, 0.0, 2025-02-18 15:57:36.930
26.0, 119.86379357986152, 257.49024199927226, 17.8785917381756, -16.2853943570517, -0.01600000075995922, 0.0, 0.49600002355873585, 0.0, 0.0, 0.0, 0.0, 0.0, 1.739894256930264E9, 0.0, 2025-02-18 15:57:36.930
27.0, 40.073028025217354, 188.13379732100293, 14.019014983903617, -30.489534388761967, -0.01600000075995922, 0.0, 0.49600002355873585, 0.0, 0.0, 0.0, 0.0, 0.0, 1.73989425693061E9, 0.0, 2025-02-18 15:57:36.930
27.0, 219.0478103547357, 360.2084642322734, 12.556714101228863, 5.320007686968893, -0.01600000075995922, 0.0, 0.49600002355873585, 0.0, 0.0, 0.0, 0.0, 0.0, 1.7398942569306593E9, 0.0, 2025-02-18 15:57:36.930
28.0, 296.10470904177055, 439.89451258815825, 12.758668698836118, 21.334259297233075, -0.01600000075995922, 0.0, 0.49600002355873585, 0.0, 0.0, 0.0, 0.0, 0.0, 1.739894256931035E9, 0.0, 2025-02-18 15:57:36.931
28.0, 125.19689091667533, 260.56443976284936, 9.05242784274742, -24.7338283569552, -0.01600000075995922, 0.0, 0.49600002355873585, 0.0, 0.0, 0.0, 0.0, 0.0, 1.7398942569310837E9, 0.0, 2025-02-18 15:57:36.931
29.0, 42.11875330097973, 187.76354722538963, 14.426664079073817, -45.58003070997074, -0.01600000075995922, 0.0, 0.49600002355873585, 0.0, 0.0, 0.0, 0.0, 0.0, 1.7398942569318798E9, 0.0, 2025-02-18 15:57:36.931
29.0, 217.61168877175078, 368.0659940391779, 12.063047307077795, -8.506402449216694, -0.01600000075995922, 0.0, 0.49600002355873585, 0.0, 0.0, 0.0, 0.0, 0.0, 1.7398942569319086E9, 0.0, 2025-02-18 15:57:36.931
30.0, 303.685486251954, 442.4039854584262, 7.541508260648698, 3.734290105756372, -0.01600000075995922, 0.0, 0.7360000349581242, 0.0, 0.0, 0.0, 0.0, 0.0, 1.7398942569599097E9, 0.0, 2025-02-18 15:57:36.959
30.0, 139.12053845170885, 281.95292760943994, 15.410257767420262, -35.860030725132674, -0.01600000075995922, 0.0, 0.7360000349581242, 0.0, 0.0, 0.0, 0.0, 0.0, 1.739894256959954E9, 0.0, 2025-02-18 15:57:36.959
31.0, 45.8736128564924, 195.0339127392508, 12.897044997196645, -56.83338967664167, -0.01600000075995922, -0.01600000075995922, 0.7360000349581242, 0.0, 0.0, 0.0, 0.0, 0.0, 1.739894256960567E9, 0.0, 2025-02-18 15:57:36.960
31.0, 225.29718318069354, 372.93908368144184, 13.293474392499775, -7.7883416577242315, -0.01600000075995922, -0.01600000075995922, 0.7360000349581242, 0.0, 0.0, 0.0, 0.0, 0.0, 1.739894256960638E9, 0.0, 2025-02-18 15:57:36.960
32.0, 315.78406260861084, 459.90297735109925, 11.980769508052617, 1.6175067308358848, -0.01600000075995922, -0.01600000075995922, 0.7360000349581242, 0.0, 0.0, 0.0, 0.0, 0.0, 1.739894256989904E9, 0.0, 2025-02-18 15:57:36.989
32.0, 146.83969196025282, 288.46409343229607, 9.920084632467479, -37.18769520940259, -0.01600000075995922, -0.01600000075995922, 0.7360000349581242, 0.0, 0.0, 0.0, 0.0, 0.0, 1.7398942569899428E9, 0.0, 2025-02-18 15:57:36.989
33.0, 47.09282024204731, 196.6682490198873, 15.773028063122183, -51.24223924288526, -0.01600000075995922, -0.01600000075995922, 0.7360000349581242, 0.0, 0.0, 0.0, 0.0, 0.0, 1.7398942569902947E9, 0.0, 2025-02-18 15:57:36.990
33.0, 220.72702543484047, 370.5941664092243, 17.11939204717055, -4.4486109972931445, -0.01600000075995922, -0.01600000075995922, 0.7360000349581242, 0.0, 0.0, 0.0, 0.0, 0.0, 1.7398942569903235E9, 0.0, 2025-02-18 15:57:36.990
34.0, 322.86369322473183, 464.7386679938063, 17.224109245929867, 4.489749896805733, -0.01600000075995922, -0.01600000075995922, 0.7360000349581242, 0.0, 0.0, 0.0, 0.0, 0.0, 1.7398942569910548E9, 0.0, 2025-02-18 15:57:36.991
34.0, 149.2145284321159, 290.117129212711, 12.848426297772676, -27.9576221187599, -0.01600000075995922, -0.01600000075995922, 0.7360000349581242, 0.0, 0.0, 0.0, 0.0, 0.0, 1.7398942569910836E9, 0.0, 2025-02-18 15:57:36.991
35.0, 35.196198482997715, 196.37653682334349, 6.449457473587245, -45.426694811787456, -0.01600000075995922, -0.01600000075995922, 0.7360000349581242, 0.0, 0.0, 0.0, 0.0, 0.0, 1.7398942569921598E9, 0.0, 2025-02-18 15:57:36.992
35.0, 222.06590961897746, 371.41320449952036, 14.033974583726376, -10.413751426618546, -0.01600000075995922, -0.01600000075995922, 0.7360000349581242, 0.0, 0.0, 0.0, 0.0, 0.0, 1.7398942569923615E9, 0.0, 2025-02-18 15:57:36.992
36.0, 326.4016385828145, 467.80164605751634, 15.836606362368912, -1.9391381270252168, -0.01600000075995922, -0.01600000075995922, 0.7360000349581242, 0.0, 0.0, 0.0, 0.0, 0.0, 1.7398942570200024E9, 0.0, 2025-02-18 15:57:37.020
36.0, 149.82039222493768, 292.0730968895368, 13.985355884302408, -34.75302033824846, -0.01600000075995922, -0.01600000075995922, 0.7360000349581242, 0.0, 0.0, 0.0, 0.0, 0.0, 1.7398942570200417E9, 0.0, 2025-02-18 15:57:37.020
37.0, 27.185332777909935, 186.697675738018, 12.2463024049066, -31.016860282514244, -0.01600000075995922, -0.01600000075995922, 0.7360000349581242, 0.0, 0.0, 0.0, 0.0, 0.0, 1.739894257021199E9, 0.0, 2025-02-18 15:57:37.021
37.0, 209.4886260679923, 353.2447705147788, 14.172350882086903, 14.68845707597211, -0.01600000075995922, -0.01600000075995922, 0.7360000349581242, 0.0, 0.0, 0.0, 0.0, 0.0, 1.7398942570212436E9, 0.0, 2025-02-18 15:57:37.021
38.0, 323.08434732211754, 463.97572840284556, 14.968949572648853, 20.31700650928542, -0.01600000075995922, -0.01600000075995922, 0.7360000349581242, 0.0, 0.0, 0.0, 0.0, 0.0, 1.739894257050928E9, 0.0, 2025-02-18 15:57:37.050
38.0, 147.61385125108063, 289.4140280210413, 20.462862607557327, -31.043039582204074, -0.01600000075995922, -0.01600000075995922, 0.7360000349581242, 0.0, 0.0, 0.0, 0.0, 0.0, 1.7398942570510347E9, 0.0, 2025-02-18 15:57:37.051
39.0, 31.564755626022816, 179.509588023182, 7.5863870601169765, -47.16948819113895, -0.01600000075995922, -0.01600000075995922, 0.7360000349581242, 0.0, 0.0, 0.0, 0.0, 0.0, 1.7398942570513053E9, 0.0, 2025-02-18 15:57:37.051
39.0, 210.73027285328135, 361.6146666156128, 16.25921505736187, -7.672404759097844, -0.01600000075995922, -0.01600000075995922, 0.7360000349581242, 0.0, 0.0, 0.0, 0.0, 0.0, 1.7398942570513508E9, 0.0, 2025-02-18 15:57:37.051
40.0, 329.19160394975916, 466.7731735697016, 6.801008069422096, -0.562854943331331, -0.01600000075995922, -0.01600000075995922, 0.8640000410377979, 0.0, 0.0, 0.0, 0.0, 0.0, 1.7398942570515351E9, 0.0, 2025-02-18 15:57:37.051
40.0, 151.96709479950368, 289.6720811179839, 12.773628298658878, -35.837591325398535, -0.01600000075995922, -0.01600000075995922, 0.8640000410377979, 0.0, 0.0, 0.0, 0.0, 0.0, 1.739894257051573E9, 0.0, 2025-02-18 15:57:37.051
41.0, 25.73425159510225, 174.94317017728463, 13.143878394272178, -35.20928813284263, -0.01600000075995922, -0.01600000075995922, 0.8640000410377979, 0.0, 0.0, 0.0, 0.0, 0.0, 1.7398942570528212E9, 0.0, 2025-02-18 15:57:37.052
41.0, 208.5237318794243, 352.0667020287365, 19.16511732293293, 15.645871464628726, -0.01600000075995922, -0.01600000075995922, 0.8640000410377979, 0.0, 0.0, 0.0, 0.0, 0.0, 1.7398942570528736E9, 0.0, 2025-02-18 15:57:37.052
42.0, 329.4720964464359, 467.9362824559212, 11.565640612971038, 10.25667562847957, -0.01600000075995922, -0.01600000075995922, 0.8640000410377979, 0.0, 0.0, 0.0, 0.0, 0.0, 1.7398942570800366E9, 0.0, 2025-02-18 15:57:37.080
42.0, 163.28029216546565, 298.2327121165581, 4.777722193393856, -28.76918040914461, -0.01600000075995922, -0.01600000075995922, 0.8640000410377979, 0.0, 0.0, 0.0, 0.0, 0.0, 1.7398942570800745E9, 0.0, 2025-02-18 15:57:37.080
43.0, 33.03453630860895, 180.9232702064328, 15.787987662944943, -40.12351667461917, -0.01600000075995922, -0.01600000075995922, 0.8640000410377979, 0.0, 0.0, 0.0, 0.0, 0.0, 1.739894257080706E9, 0.0, 2025-02-18 15:57:37.080
43.0, 209.73545946506783, 359.3520271424204, 15.346679468173534, -5.798714881297201, -0.01600000075995922, -0.01600000075995922, 0.8640000410377979, 0.0, 0.0, 0.0, 0.0, 0.0, 1.7398942570807452E9, 0.0, 2025-02-18 15:57:37.080
44.0, 341.27522070659325, 479.54493191838264, 15.320500168483704, -3.83152750460431, -0.01600000075995922, -0.01600000075995922, 0.8640000410377979, 0.0, 0.0, 0.0, 0.0, 0.0, 1.7398942571099603E9, 0.0, 2025-02-18 15:57:37.109
44.0, 148.24963424354792, 304.2689106450416, 10.353913027327508, -52.330550129991025, -0.01600000075995922, -0.01600000075995922, 0.8640000410377979, 0.0, 0.0, 0.0, 0.0, 0.0, 1.7398942571100805E9, 0.0, 2025-02-18 15:57:37.110
45.0, 24.784317006357014, 180.09675231622532, 7.870619456749409, -62.61153510818258, -0.01600000075995922, -0.01600000075995922, 0.8640000410377979, 0.0, 0.0, 0.0, 0.0, 0.0, 1.7398942571102917E9, 0.0, 2025-02-18 15:57:37.110
45.0, 211.65776804229245, 359.2921887431294, 9.897645232733339, -15.006348572205752, -0.01600000075995922, -0.01600000075995922, 0.8640000410377979, 0.0, 0.0, 0.0, 0.0, 0.0, 1.7398942571103156E9, 0.0, 2025-02-18 15:57:37.110
46.0, 343.4742818805389, 476.8222847506404, 14.490242378320545, -18.27502113347873, -0.01600000075995922, -0.01600000075995922, 0.8640000410377979, 0.0, 0.0, 0.0, 0.0, 0.0, 1.7398942571111193E9, 0.0, 2025-02-18 15:57:37.111
46.0, 159.71990740764886, 304.07817574730143, 11.44596381438896, -66.50103106210008, -0.01600000075995922, -0.01600000075995922, 0.8640000410377979, 0.0, 0.0, 0.0, 0.0, 0.0, 1.7398942571111465E9, 0.0, 2025-02-18 15:57:37.111
47.0, 28.000630968250334, 178.1407846393995, 11.427264314610511, -78.78660241654143, -0.01600000075995922, -0.01600000075995922, 0.8640000410377979, 0.0, 0.0, 0.0, 0.0, 0.0, 1.7398942571122513E9, 0.0, 2025-02-18 15:57:37.112
47.0, 221.25061142863706, 364.00072278734297, 5.346186986658722, -36.41353591857478, -0.01600000075995922, -0.01600000075995922, 0.8640000410377979, 0.0, 0.0, 0.0, 0.0, 0.0, 1.7398942571122952E9, 0.0, 2025-02-18 15:57:37.112
48.0, 348.16037652501836, 484.69477415736765, 17.736475539859384, -44.293505125213414, -0.01600000075995922, -0.01600000075995922, 0.8640000410377979, 0.0, 0.0, 0.0, 0.0, 0.0, 1.7398942571399837E9, 0.0, 2025-02-18 15:57:37.139
48.0, 173.39298164565116, 311.4195993603207, 16.472389354836196, -84.74052314599976, -0.01600000075995922, -0.01600000075995922, 0.8640000410377979, 0.0, 0.0, 0.0, 0.0, 0.0, 1.7398942571400158E9, 0.0, 2025-02-18 15:57:37.140
49.0, 28.486817962490022, 172.70671000378206, 10.499769125599414, -80.10678710089996, -0.01600000075995922, -0.01600000075995922, 0.8640000410377979, 0.0, 0.0, 0.0, 0.0, 0.0, 1.739894257140741E9, 0.0, 2025-02-18 15:57:37.140
49.0, 214.7095264061354, 357.6054938631132, 12.399638303089887, -29.58447859948501, -0.01600000075995922, -0.01600000075995922, 0.8640000410377979, 0.0, 0.0, 0.0, 0.0, 0.0, 1.7398942571407642E9, 0.0, 2025-02-18 15:57:37.140
50.0, 346.12961084907874, 485.2968980502337, 18.77616772754118, -16.393851455766708, -0.01600000075995922, -0.01600000075995922, 0.9280000440776348, 0.0, 0.0, 0.0, 0.0, 0.0, 1.7398942571699593E9, 0.0, 2025-02-18 15:57:37.169
50.0, 159.18136181402951, 302.7505112630315, 14.759515175130218, -50.3745824531652, -0.01600000075995922, -0.01600000075995922, 0.9280000440776348, 0.0, 0.0, 0.0, 0.0, 0.0, 1.7398942571701179E9, 0.0, 2025-02-18 15:57:37.170
51.0, 18.92389377579093, 162.71369732217863, 15.189603670034558, -56.10784908523783, -0.01600000075995922, 0.0, 0.9280000440776348, 0.0, 0.0, 0.0, 0.0, 0.0, 1.7398942571704488E9, 0.0, 2025-02-18 15:57:37.170
51.0, 199.84716398222372, 351.62539383396506, 14.127472082618624, -6.842146968934685, -0.01600000075995922, 0.0, 0.9280000440776348, 0.0, 0.0, 0.0, 0.0, 0.0, 1.7398942571704817E9, 0.0, 2025-02-18 15:57:37.170
52.0, 346.3951437459327, 486.9387141307816, 19.842039214912802, -5.940831079613417, 0.0, 0.0, 0.9280000440776348, 0.0, 0.0, 0.0, 0.0, 0.0, 1.73989425717101E9, 0.0, 2025-02-18 15:57:37.171
52.0, 175.51724482048303, 311.47943775961176, 17.179230446461588, -56.4519198811613, 0.0, 0.0, 0.9280000440776348, 0.0, 0.0, 0.0, 0.0, 0.0, 1.7398942571710317E9, 0.0, 2025-02-18 15:57:37.171
53.0, 13.127048844471574, 167.37361266696826, 12.511835301760584, -55.78995758900419, 0.0, 0.0, 0.9280000440776348, 0.0, 0.0, 0.0, 0.0, 0.0, 1.7398942571722047E9, 0.0, 2025-02-18 15:57:37.172
53.0, 210.95466685062274, 359.7933353371918, 17.04459404805675, -12.829726797994226, 0.0, 0.0, 0.9280000440776348, 0.0, 0.0, 0.0, 0.0, 0.0, 1.739894257172236E9, 0.0, 2025-02-18 15:57:37.172
54.0, 354.5144665497355, 499.02981068752706, 15.49253556644544, -12.25752210477367, 0.0, 0.0, 0.9280000440776348, 0.0, 0.0, 0.0, 0.0, 0.0, 1.7398942571999557E9, 0.0, 2025-02-18 15:57:37.199
54.0, 164.57803745009005, 313.2110114390962, 14.067633683327585, -45.17986141471192, 0.0, 0.0, 0.9280000440776348, 0.0, 0.0, 0.0, 0.0, 0.0, 1.7398942572001033E9, 0.0, 2025-02-18 15:57:37.200
55.0, 11.346856465563178, 161.44961113715544, 15.627171964850277, -43.76243933150545, 0.0, 0.0, 0.9280000440776348, 0.0, 0.0, 0.0, 0.0, 0.0, 1.7398942572010162E9, 0.0, 2025-02-18 15:57:37.201
55.0, 202.44265455147251, 346.7223849920556, 11.700277011375874, 12.811027298215777, 0.0, 0.0, 0.9280000440776348, 0.0, 0.0, 0.0, 0.0, 0.0, 1.7398942572010698E9, 0.0, 2025-02-18 15:57:37.201
56.0, 346.98604793893173, 489.44070720113814, 9.736829534638673, 15.88896496174857, 0.0, 0.0, 0.9280000440776348, 0.0, 0.0, 0.0, 0.0, 0.0, 1.7398942572302008E9, 0.0, 2025-02-18 15:57:37.230
56.0, 163.95347415748984, 306.423093019519, 15.249442069325596, -25.60148514667526, 0.0, 0.0, 0.9280000440776348, 0.0, 0.0, 0.0, 0.0, 0.0, 1.7398942572302437E9, 0.0, 2025-02-18 15:57:37.230
57.0, 2.9133820654824376, 152.9076796383597, 8.936490944121033, -23.753974568564445, 0.0, 0.0, 0.9280000440776348, 0.0, 0.0, 0.0, 0.0, 0.0, 1.739894257230542E9, 0.0, 2025-02-18 15:57:37.230
57.0, 193.2612001602538, 343.21435883361846, 11.44596381438896, 27.086225429084152, 0.0, 0.0, 0.9280000440776348, 0.0, 0.0, 0.0, 0.0, 0.0, 1.7398942572305937E9, 0.0, 2025-02-18 15:57:37.230
58.0, 350.46041499776766, 493.06467025820166, 15.948803361039609, 29.371304302010685, 0.0, 0.0, 0.9280000440776348, 0.0, 0.0, 0.0, 0.0, 0.0, 1.7398942572316935E9, 0.0, 2025-02-18 15:57:37.231
58.0, 166.01789893303066, 308.37532079638913, 3.259322811383754, -15.89270486170426, 0.0, 0.0, 0.9280000440776348, 0.0, 0.0, 0.0, 0.0, 0.0, 1.7398942572317705E9, 0.0, 2025-02-18 15:57:37.231
59.0, -1.690434779971838, 149.22387818200514, 18.72754902811721, -8.63355904771015, 0.0, 0.0, 0.9280000440776348, 0.0, 0.0, 0.0, 0.0, 0.0, 1.7398942572320795E9, 0.0, 2025-02-18 15:57:37.232
59.0, 188.61998431524262, 340.4505727663636, 8.207210452761501, 37.58786450466141, 0.0, 0.0, 0.9280000440776348, 0.0, 0.0, 0.0, 0.0, 0.0, 1.7398942572321136E9, 0.0, 2025-02-18 15:57:37.232
60.0, 350.9166827923618, 493.8911881484091, 10.062200830783695, 41.73541355552152, 0.0, 0.0, 0.9760000463575125, 0.0, 0.0, 0.0, 0.0, 0.0, 1.7398942572600915E9, 0.0, 2025-02-18 15:57:37.260
60.0, 161.82921098265797, 312.36953394906595, 6.879545968491584, -1.3070950345136225, 0.0, 0.0, 0.9760000463575125, 0.0, 0.0, 0.0, 0.0, 0.0, 1.7398942572601304E9, 0.0, 2025-02-18 15:57:37.260
61.0, -8.82990379538387, 143.36345495143905, 7.556467860471457, -3.663232006598264, 0.0, 0.0, 0.9760000463575125, 0.0, 0.0, 0.0, 0.0, 0.0, 1.739894257260814E9, 0.0, 2025-02-18 15:57:37.260
61.0, 193.22754106065258, 346.07538229972124, 6.535475172568113, 28.200715615879744, 0.0, 0.0, 0.9760000463575125, 0.0, 0.0, 0.0, 0.0, 0.0, 1.739894257260847E9, 0.0, 2025-02-18 15:57:37.260
62.0, 355.12781014246866, 504.26567062549293, 8.906571744475514, 26.211088839452714, 0.0, 0.0, 0.9760000463575125, 0.0, 0.0, 0.0, 0.0, 0.0, 1.7398942572900753E9, 0.0, 2025-02-18 15:57:37.290
62.0, 165.05674464441836, 317.74377018539235, 14.508941878098994, -20.29830700950697, 0.0, 0.0, 0.9760000463575125, 0.0, 0.0, 0.0, 0.0, 0.0, 1.7398942572902503E9, 0.0, 2025-02-18 15:57:37.290
63.0, -2.42345517128706, 146.73310481151566, 13.529088089708239, -35.66181602748111, 0.0, 0.0, 0.9760000463575125, 0.0, 0.0, 0.0, 0.0, 0.0, 1.7398942572904787E9, 0.0, 2025-02-18 15:57:37.290
63.0, 192.46834136964753, 345.65651350468397, 5.290088487323374, 3.981123502831906, 0.0, 0.0, 0.9760000463575125, 0.0, 0.0, 0.0, 0.0, 0.0, 1.7398942572905204E9, 0.0, 2025-02-18 15:57:37.290
64.0, 363.6996608409099, 503.6186679331586, 13.611365888733417, 2.7245171177200973, 0.0, 0.0, 0.9760000463575125, 0.0, 0.0, 0.0, 0.0, 0.0, 1.7398942572910748E9, 0.0, 2025-02-18 15:57:37.291
64.0, 174.69820673018694, 313.6859787334688, 17.743955339770764, -45.22848011413589, 0.0, 0.0, 0.9760000463575125, 0.0, 0.0, 0.0, 0.0, 0.0, 1.7398942572910972E9, 0.0, 2025-02-18 15:57:37.291
65.0, -7.3040246134623885, 144.18997284164652, 9.744309334550053, -37.95811460027471, 0.0, 0.0, 0.9760000463575125, 0.0, 0.0, 0.0, 0.0, 0.0, 1.7398942572919211E9, 0.0, 2025-02-18 15:57:37.291
65.0, 186.13669074466452, 344.7103188158944, 12.051827607210726, 10.806440921965986, 0.0, 0.0, 0.9760000463575125, 0.0, 0.0, 0.0, 0.0, 0.0, 1.7398942572919753E9, 0.0, 2025-02-18 15:57:37.291
66.0, 350.90920299245045, 522.9165517045185, 9.228203140664846, 10.552127724979073, 0.0, 0.0, 0.9760000463575125, 0.0, 0.0, 0.0, 0.0, 0.0, 1.7398942573201954E9, 0.0, 2025-02-18 15:57:37.320
66.0, 158.1528893262148, 322.246609732043, 9.800407833885401, -32.31460556713864, 0.0, 0.0, 0.9760000463575125, 0.0, 0.0, 0.0, 0.0, 0.0, 1.7398942573202453E9, 0.0, 2025-02-18 15:57:37.320
67.0, -11.208480167202652, 132.03155808569863, 7.4255713620223105, -35.11205073399469, 0.0, 0.0, 0.9760000463575125, 0.0, 0.0, 0.0, 0.0, 0.0, 1.7398942573206031E9, 0.0, 2025-02-18 15:57:37.320
67.0, 183.81795277213678, 335.1623542290181, 15.230742569547147, -4.459830697160214, 0.0, 0.0, 0.9760000463575125, 0.0, 0.0, 0.0, 0.0, 0.0, 1.7398942573206353E9, 0.0, 2025-02-18 15:57:37.320
68.0, 365.0535046248697, 506.70034549664706, 8.502662549261004, -14.206009981688112, 0.0, 0.0, 0.9760000463575125, 0.0, 0.0, 0.0, 0.0, 0.0, 1.739894257350201E9, 0.0, 2025-02-18 15:57:37.350
68.0, 168.90136179886758, 320.0176293584518, 2.8853328158147633, -63.946679392363876, 0.0, 0.0, 0.9760000463575125, 0.0, 0.0, 0.0, 0.0, 0.0, 1.7398942573502672E9, 0.0, 2025-02-18 15:57:37.350
69.0, -5.351796836592257, 146.3142360164784, 13.241115793120116, -70.0501961200498, 0.0, 0.0, 0.9760000463575125, 0.0, 0.0, 0.0, 0.0, 0.0, 1.7398942573503983E9, 0.0, 2025-02-18 15:57:37.350
69.0, 154.13436682382599, 360.18228493258357, 13.839499786030501, -24.191542863380164, 0.0, 0.0, 0.9760000463575125, 0.0, 0.0, 0.0, 0.0, 0.0, 1.7398942573504324E9, 0.0, 2025-02-18 15:57:37.350
70.0, 366.24653271073475, 519.0794143499807, 6.288641775492579, -37.16151590971276, 0.0, 0.0, 0.9760000463575125, 0.0, 0.0, 0.0, 0.0, 0.0, 1.739894257351061E9, 0.0, 2025-02-18 15:57:37.351
70.0, 189.35861455649137, 311.15032656351104, 13.555267389398068, -79.47100410843268, 0.0, 0.0, 0.9760000463575125, 0.0, 0.0, 0.0, 0.0, 0.0, 1.739894257351087E9, 0.0, 2025-02-18 15:57:37.351
71.0, -8.115582903847098, 129.9372141105123, 6.535475172568113, -81.25867628725246, 0.0, 0.0, 0.9760000463575125, 0.0, 0.0, 0.0, 0.0, 0.0, 1.7398942573523405E9, 0.0, 2025-02-18 15:57:37.352
71.0, 201.69467456033453, 338.03085749503225, 13.10273949475959, -32.86437086062506, 0.0, 0.0, 0.9760000463575125, 0.0, 0.0, 0.0, 0.0, 0.0, 1.7398942573523657E9, 0.0, 2025-02-18 15:57:37.352
72.0, 384.69545919215307, 522.0227156151086, 9.84902653330937, -42.05704495171085, 0.0, 0.0, 0.9760000463575125, 0.0, 0.0, 0.0, 0.0, 0.0, 1.739894257380054E9, 0.0, 2025-02-18 15:57:37.380
72.0, 176.99076540302485, 333.04370090411976, 13.196236993651837, -77.81422842806205, 0.0, 0.0, 0.9760000463575125, 0.0, 0.0, 0.0, 0.0, 0.0, 1.7398942573801017E9, 0.0, 2025-02-18 15:57:37.380
73.0, -25.640754096210003, 148.66663308860734, 13.51412848988548, -76.92039233865216, 0.0, 0.0, 0.9760000463575125, 0.0, 0.0, 0.0, 0.0, 0.0, 1.7398942573809052E9, 0.0, 2025-02-18 15:57:37.380
73.0, 170.04764113528654, 372.41175778768957, 8.502662549261004, -21.345478997100145, 0.0, 0.0, 0.9760000463575125, 0.0, 0.0, 0.0, 0.0, 0.0, 1.7398942573809404E9, 0.0, 2025-02-18 15:57:37.380
74.0, 363.88291593873873, 543.9721884550527, 9.721869934815913, -31.731181174051017, 0.0, 0.0, 0.9760000463575125, 0.0, 0.0, 0.0, 0.0, 0.0, 1.7398942574107409E9, 0.0, 2025-02-18 15:57:37.410
74.0, 162.3340974766761, 376.4639393896796, 10.473589825909585, -78.44253162061796, 0.0, 0.0, 0.9760000463575125, 0.0, 0.0, 0.0, 0.0, 0.0, 1.739894257410789E9, 0.0, 2025-02-18 15:57:37.410
75.0, 404.7226234548725, 179.12063842779025, 12.414597902912647, -77.6833319296129, 0.0, 0.0, 0.9760000463575125, 0.0, 0.0, 0.0, 0.0, 0.0, 1.7398942574110265E9, 0.0, 2025-02-18 15:57:37.411
75.0, 287.0167521494441, 285.85925311315805, 9.101046542171389, -38.111450498458, 0.0, 0.0, 0.9760000463575125, 0.0, 0.0, 0.0, 0.0, 0.0, 1.7398942574110668E9, 0.0, 2025-02-18 15:57:37.411
76.0, 451.6882870984264, 492.264331667684, 10.757822222542018, -33.20096185663715, 0.0, 0.0, 0.9760000463575125, 0.0, 0.0, 0.0, 0.0, 0.0, 1.7398942574114475E9, 0.0, 2025-02-18 15:57:37.411
76.0, 696.3712416994385, 325.8817924889736, 13.727302787359804, -72.57462859014049, 0.0, 0.0, 0.9760000463575125, 0.0, 0.0, 0.0, 0.0, 0.0, 1.7398942574114735E9, 0.0, 2025-02-18 15:57:37.411
77.0, 451.55365070002154, 160.9110655435361, 15.784247762989253, -61.77379751810804, 0.0, 0.0, 0.9760000463575125, 0.0, 0.0, 0.0, 0.0, 0.0, 1.739894257411899E9, 0.0, 2025-02-18 15:57:37.411
77.0, 670.0442159613594, 354.0563288051635, 10.350173127371818, -18.68267022864893, 0.0, 0.0, 0.9760000463575125, 0.0, 0.0, 0.0, 0.0, 0.0, 1.7398942574119313E9, 0.0, 2025-02-18 15:57:37.411
78.0, 768.4110645959154, 580.4212534232065, 2.859153516124934, -24.430896460544318, 0.0, 0.0, 0.9760000463575125, 0.0, 0.0, 0.0, 0.0, 0.0, 1.739894257439941E9, 0.0, 2025-02-18 15:57:37.439
78.0, 968.1853005290031, 527.8251703963615, 12.747448998969048, -39.64480948029086, 0.0, 0.0, 0.9760000463575125, 0.0, 0.0, 0.0, 0.0, 0.0, 1.7398942574399805E9, 0.0, 2025-02-18 15:57:37.439
79.0, 975.2350119454786, 649.8824153002352, 14.482762578409165, -67.7912965468131, 0.0, 0.0, 0.9760000463575125, 0.0, 0.0, 0.0, 0.0, 0.0, 1.7398942574406235E9, 0.0, 2025-02-18 15:57:37.440
79.0, 1081.943707431201, 422.3057630965486, 14.452843378763646, 39.37927658343688, 0.0, 0.0, 0.9760000463575125, 0.0, 0.0, 0.0, 0.0, 0.0, 1.7398942574406655E9, 0.0, 2025-02-18 15:57:37.440
80.0, 975.7099792398512, 424.134574174881, 10.477329725865275, 11.823693709913641, 0.0, 0.0, 0.9920000471174717, 0.0, 0.0, 0.0, 0.0, 0.0, 1.7398942574699392E9, 0.0, 2025-02-18 15:57:37.469
80.0, 1112.0480321245268, 355.7336739352904, 12.078006906900555, 7.234836464282125, 0.0, 0.0, 0.9920000471174717, 0.0, 0.0, 0.0, 0.0, 0.0, 1.739894257469987E9, 0.0, 2025-02-18 15:57:37.469
81.0, 1014.2197290835902, 136.57927643181756, 15.238222369458526, -14.078853383194655, 0.0, 0.0, 0.9920000471174717, 0.0, 0.0, 0.0, 0.0, 0.0, 1.7398942574703567E9, 0.0, 2025-02-18 15:57:37.470
81.0, 1128.7298558768816, -1.045302037615329, 20.130011511500925, 54.9335204991512, 0.0, 0.0, 0.9920000471174717, 0.0, 0.0, 0.0, 0.0, 0.0, 1.7398942574704704E9, 0.0, 2025-02-18 15:57:37.470
82.0, 905.0483094770461, -6.479376673232764, 9.42267793836072, -12.65021160012111, -0.01600000075995922, 0.0, 0.9920000471174717, 0.0, 0.0, 0.0, 0.0, 0.0, 1.7398942574709232E9, 0.0, 2025-02-18 15:57:37.470
82.0, 715.6728653707542, -237.895036181435, 11.45718351425603, -45.434174611698836, -0.01600000075995922, 0.0, 0.9920000471174717, 0.0, 0.0, 0.0, 0.0, 0.0, 1.739894257470981E9, 0.0, 2025-02-18 15:57:37.470
83.0, 515.1207302468829, -313.5195531854406, 13.192497093696147, -13.334613292012364, -0.01600000075995922, 0.0, 0.9920000471174717, 0.0, 0.0, 0.0, 0.0, 0.0, 1.7398942574718955E9, 0.0, 2025-02-18 15:57:37.471
83.0, 671.8767669396475, -161.03448224207386, 13.349572891835123, 32.49038086505607, -0.01600000075995922, 0.0, 0.9920000471174717, 0.0, 0.0, 0.0, 0.0, 0.0, 1.739894257471922E9, 0.0, 2025-02-18 15:57:37.471
84.0, 885.1146427132189, 40.76677946699783, 13.207456693518907, 34.251873744186014, -0.01600000075995922, 0.0, 0.9920000471174717, 0.0, 0.0, 0.0, 0.0, 0.0, 1.7398942575001256E9, 0.0, 2025-02-18 15:57:37.500
84.0, 776.0909491549246, 268.1452169730328, 9.000069243367761, -11.44222391443327, -0.01600000075995922, 0.0, 0.9920000471174717, 0.0, 0.0, 0.0, 0.0, 0.0, 1.7398942575004025E9, 0.0, 2025-02-18 15:57:37.500
85.0, 844.144038698636, 127.43148114020005, 10.395051926840097, 11.655398211907595, -0.01600000075995922, 0.0, 0.9920000471174717, 0.0, 0.0, 0.0, 0.0, 0.0, 1.7398942575007243E9, 0.0, 2025-02-18 15:57:37.500
85.0, 724.5158588159829, 304.951442386955, 11.546941113192588, 32.03785297041759, -0.01600000075995922, 0.0, 0.9920000471174717, 0.0, 0.0, 0.0, 0.0, 0.0, 1.7398942575007515E9, 0.0, 2025-02-18 15:57:37.500
86.0, 919.0916338106617, 516.3567671822384, 13.267295092809945, 41.436221559066325, -0.01600000075995922, 0.0, 0.9920000471174717, 0.0, 0.0, 0.0, 0.0, 0.0, 1.7398942575299826E9, 0.0, 2025-02-18 15:57:37.529
86.0, 700.5711493496783, 730.8774286406115, 11.187910717446357, -4.964717191178352, -0.01600000075995922, 0.0, 0.9920000471174717, 0.0, 0.0, 0.0, 0.0, 0.0, 1.7398942575301583E9, 0.0, 2025-02-18 15:57:37.530
87.0, 907.2847696505487, 599.7266169944778, 13.49168909015134, 24.086825664620847, -0.01600000075995922, 0.0, 0.9920000471174717, 0.0, 0.0, 0.0, 0.0, 0.0, 1.7398942575318272E9, 0.0, 2025-02-18 15:57:37.531
87.0, 671.3270016461611, 812.8541657193564, 5.391065786127001, 73.2365908822976, -0.01600000075995922, 0.0, 0.9920000471174717, 0.0, 0.0, 0.0, 0.0, 0.0, 1.739894257531957E9, 0.0, 2025-02-18 15:57:37.531
88.0, 834.6259933114052, 586.4836312513798, 8.67095804726705, 78.31163512216881, -0.01600000075995922, 0.0, 0.9920000471174717, 0.0, 0.0, 0.0, 0.0, 0.0, 1.7398942575323255E9, 0.0, 2025-02-18 15:57:37.532
88.0, 761.0789907327853, 649.2541121076792, 9.42641783831641, 8.080053854268044, -0.01600000075995922, 0.0, 0.9920000471174717, 0.0, 0.0, 0.0, 0.0, 0.0, 1.7398942575323656E9, 0.0, 2025-02-18 15:57:37.532
89.0, 521.2130272747017, 461.3241393342614, 12.003208907786757, 26.611258134711534, -0.01600000075995922, 0.0, 0.9920000471174717, 0.0, 0.0, 0.0, 0.0, 0.0, 1.739894257532703E9, 0.0, 2025-02-18 15:57:37.532
89.0, 678.5300489608198, 258.92075373232365, 9.250642540398985, 65.21824537729844, -0.01600000075995922, 0.0, 0.9920000471174717, 0.0, 0.0, 0.0, 0.0, 0.0, 1.7398942575329688E9, 0.0, 2025-02-18 15:57:37.532
90.0, 893.9557662084699, 492.40270796604455, 8.25956905214116, 45.30327811324969, -0.01600000075995922, 0.0, 0.9920000471174717, 0.0, 0.0, 0.0, 0.0, 0.0, 1.739894257559982E9, 0.0, 2025-02-18 15:57:37.559
90.0, 689.1644544848241, 281.0703112198971, 20.470342407468706, 7.02540206676349, -0.01600000075995922, 0.0, 0.9920000471174717, 0.0, 0.0, 0.0, 0.0, 0.0, 1.7398942575600324E9, 0.0, 2025-02-18 15:57:37.560
91.0, 910.7591367093846, 80.29378209868446, 16.67434395244345, 22.29167368588969, -0.01600000075995922, -0.01600000075995922, 0.9920000471174717, 0.0, 0.0, 0.0, 0.0, 0.0, 1.739894257560763E9, 0.0, 2025-02-18 15:57:37.560
91.0, 696.896697643213, 250.19930703565478, 16.30783375678584, 67.21535195363685, -0.01600000075995922, -0.01600000075995922, 0.9920000471174717, 0.0, 0.0, 0.0, 0.0, 0.0, 1.7398942575607972E9, 0.0, 2025-02-18 15:57:37.560
92.0, 883.8505565281957, 493.10206925775856, 11.214090017136186, 55.498245392460376, -0.01600000075995922, -0.01600000075995922, 0.9920000471174717, 0.0, 0.0, 0.0, 0.0, 0.0, 1.739894257590054E9, 0.0, 2025-02-18 15:57:37.590
92.0, 742.2485944558866, 253.0248014521785, 10.937337420415133, -8.001515955198556, -0.01600000075995922, -0.01600000075995922, 0.9920000471174717, 0.0, 0.0, 0.0, 0.0, 0.0, 1.7398942575901077E9, 0.0, 2025-02-18 15:57:37.590
93.0, 940.7718338537961, 64.69839928345755, 16.588326253462583, 10.522208525333554, -0.01600000075995922, -0.01600000075995922, 0.9920000471174717, 0.0, 0.0, 0.0, 0.0, 0.0, 1.7398942575904152E9, 0.0, 2025-02-18 15:57:37.590
93.0, 1172.4118873593397, 274.5722350468859, 14.953989972826093, 46.79549819556996, -0.01600000075995922, -0.01600000075995922, 0.9920000471174717, 0.0, 0.0, 0.0, 0.0, 0.0, 1.73989425759045E9, 0.0, 2025-02-18 15:57:37.590
94.0, 1378.042806623038, 499.1307879863307, 9.47503653774038, 34.69692183891311, -0.01600000075995922, -0.01600000075995922, 0.9920000471174717, 0.0, 0.0, 0.0, 0.0, 0.0, 1.7398942575910025E9, 0.0, 2025-02-18 15:57:37.591
94.0, 1161.1042998433113, 293.5279179723002, 6.0567679782398045, -11.797514410223812, -0.01600000075995922, -0.01600000075995922, 0.9920000471174717, 0.0, 0.0, 0.0, 0.0, 0.0, 1.7398942575910373E9, 0.0, 2025-02-18 15:57:37.591
95.0, 944.9493021043018, 52.61852242657915, 14.651058076415211, -9.220723340753466, -0.01600000075995922, -0.01600000075995922, 0.9920000471174717, 0.0, 0.0, 0.0, 0.0, 0.0, 1.7398942575920155E9, 0.0, 2025-02-18 15:57:37.592
95.0, 1158.8547500199638, 276.3935663253069, 10.67554442351684, 36.671589015517384, -0.01600000075995922, -0.01600000075995922, 0.9920000471174717, 0.0, 0.0, 0.0, 0.0, 0.0, 1.7398942575920515E9, 0.0, 2025-02-18 15:57:37.592
96.0, 1384.7073083440773, 500.1368210744113, 11.939630608540028, 24.228941862937063, -0.01600000075995922, -0.01600000075995922, 0.9920000471174717, 0.0, 0.0, 0.0, 0.0, 0.0, 1.7398942576199882E9, 0.0, 2025-02-18 15:57:37.619
96.0, 1166.860005875118, 290.20688681164756, 9.546094636898488, -10.997175819706172, -0.01600000075995922, -0.01600000075995922, 0.9920000471174717, 0.0, 0.0, 0.0, 0.0, 0.0, 1.7398942576200335E9, 0.0, 2025-02-18 15:57:37.620
97.0, 1407.7039531716146, 58.407887557987124, 10.413751426618546, 1.7184840296395123, -0.01600000075995922, -0.01600000075995922, 0.9920000471174717, 0.0, 0.0, 0.0, 0.0, 0.0, 1.7398942576206503E9, 0.0, 2025-02-18 15:57:37.620
97.0, 1167.3256234196015, 280.4700572770089, 12.567933801095933, 39.7420468791388, -0.01600000075995922, -0.01600000075995922, 0.9920000471174717, 0.0, 0.0, 0.0, 0.0, 0.0, 1.7398942576207E9, 0.0, 2025-02-18 15:57:37.620
98.0, 1391.682221761439, 510.14479335583746, 10.66806462360546, 16.610765653196722, -0.01600000075995922, -0.01600000075995922, 0.9920000471174717, 0.0, 0.0, 0.0, 0.0, 0.0, 1.7398942576500828E9, 0.0, 2025-02-18 15:57:37.650
98.0, 1185.2378742573783, 307.8405151027255, 7.257275864016265, -44.41692182375118, -0.01600000075995922, -0.01600000075995922, 0.9920000471174717, 0.0, 0.0, 0.0, 0.0, 0.0, 1.7398942576501257E9, 0.0, 2025-02-18 15:57:37.650
99.0, 1421.2199516114779, 67.66787984827533, 7.889318956527859, -37.91323580080643, -0.01600000075995922, -0.01600000075995922, 0.9920000471174717, 0.0, 0.0, 0.0, 0.0, 0.0, 1.7398942576503627E9, 0.0, 2025-02-18 15:57:37.650
99.0, 1650.8778581405059, 297.63619807362556, 7.335813763085753, 9.87146593304351, -0.01600000075995922, -0.01600000075995922, 0.9920000471174717, 0.0, 0.0, 0.0, 0.0, 0.0, 1.7398942576503832E9, 0.0, 2025-02-18 15:57:37.650
100.0, 1881.2893545106053, 522.5799607085064, 10.922377820592374, 0.4095190451480448, -0.01600000075995922, -0.01600000075995922, 1.008000047877431, 0.0, 0.0, 0.0, 0.0, 0.0, 1.7398942576511269E9, 0.0, 2025-02-18 15:57:37.651
100.0, 1668.7639296785928, 304.1641934462823, 12.362239303532988, -39.21846088534221, -0.01600000075995922, -0.01600000075995922, 1.008000047877431, 0.0, 0.0, 0.0, 0.0, 0.0, 1.739894257651147E9, 0.0, 2025-02-18 15:57:37.651
0.0, -56.88574827602133, 59.122208449523896, 14.146171582397074, -11.229049616958946, -0.01600000075995922, -0.01600000075995922, 1.008000047877431, 0.0, 0.0, 0.0, 0.0, 0.0, 1.7398942576519842E9, 0.0, 2025-02-18 15:57:37.651
1.0, 175.80147721711546, 288.2827082844451, 9.093566742260009, 39.454074582550675, -0.01600000075995922, -0.01600000075995922, 1.008000047877431, 0.0, 0.0, 0.0, 0.0, 0.0, 1.7398942576806176E9, 0.0, 2025-02-18 15:57:37.680
1.0, 415.9067942723632, 515.2310572955757, 12.317360504064709, 21.229542098473758, -0.01600000075995922, -0.01600000075995922, 1.008000047877431, 0.0, 0.0, 0.0, 0.0, 0.0, 1.7398942576806672E9, 0.0, 2025-02-18 15:57:37.680
2.0, 193.94186195218936, 304.0931353471242, 13.241115793120116, -21.15100419940427, -0.01600000075995922, -0.01600000075995922, 1.008000047877431, 0.0, 0.0, 0.0, 0.0, 0.0, 1.739894257681079E9, 0.0, 2025-02-18 15:57:37.681
2.0, -46.81419769534841, 64.26083098864183, 13.06534049520269, -2.328087722416967, -0.01600000075995922, -0.01600000075995922, 1.008000047877431, 0.0, 0.0, 0.0, 0.0, 0.0, 1.739894257681391E9, 0.0, 2025-02-18 15:57:37.681
3.0, 177.98183889128268, 291.7346359435469, 7.799561357591301, 55.73011918971315, -0.01600000075995922, -0.01600000075995922, 1.008000047877431, 0.0, 0.0, 0.0, 0.0, 0.0, 1.739894257681424E9, 0.0, 2025-02-18 15:57:37.681
3.0, 407.4845395721495, 526.6901107598096, 18.634051529224962, 45.20978061435744, -0.01600000075995922, -0.01600000075995922, 1.008000047877431, 0.0, 0.0, 0.0, 0.0, 0.0, 1.7398942576814487E9, 0.0, 2025-02-18 15:57:37.681
4.0, 192.78623286588117, 312.4368521482684, 10.316514027770609, -2.739476717542857, -0.01600000075995922, -0.01600000075995922, 1.008000047877431, 0.0, 0.0, 0.0, 0.0, 0.0, 1.7398942577100575E9, 0.0, 2025-02-18 15:57:37.710
4.0, -48.7813850720413, 70.82435541087762, 17.833712938707322, -5.903432080056518, -0.01600000075995922, -0.01600000075995922, 1.008000047877431, 0.0, 0.0, 0.0, 0.0, 0.0, 1.7398942577100973E9, 0.0, 2025-02-18 15:57:37.710
5.0, 187.0136972842738, 306.1556901726872, 7.388172362465411, 17.373705244157463, -0.01600000075995922, -0.01600000075995922, 1.008000047877431, 0.0, 0.0, 0.0, 0.0, 0.0, 1.7398942577105567E9, 0.0, 2025-02-18 15:57:37.710
5.0, -56.91940737562254, 548.1197375059128, 10.058460930828005, 8.472743349615484, -0.01600000075995922, -0.01600000075995922, 1.008000047877431, 0.0, 0.0, 0.0, 0.0, 0.0, 1.739894257710588E9, 0.0, 2025-02-18 15:57:37.710
6.0, -274.18328545149416, 332.6210922091268, 11.771335110533983, -58.0451172622852, -0.01600000075995922, -0.01600000075995922, 1.008000047877431, 0.0, 0.0, 0.0, 0.0, 0.0, 1.7398942577113996E9, 0.0, 2025-02-18 15:57:37.711
6.0, -44.93676791759208, 576.9094873648137, 11.023355119396001, -46.76183909596875, -0.01600000075995922, -0.01600000075995922, 1.008000047877431, 0.0, 0.0, 0.0, 0.0, 0.0, 1.7398942577114308E9, 0.0, 2025-02-18 15:57:37.711
7.0, 193.96243140194565, 810.0081018530764, 9.811627533752471, -2.178491724189371, -0.01600000075995922, -0.01600000075995922, 1.008000047877431, 0.0, 0.0, 0.0, 0.0, 0.0, 1.7398942577401035E9, 0.0, 2025-02-18 15:57:37.740
7.0, 438.9034390999004, 1047.9854158335365, 12.971842996310443, -3.1994844120927155, -0.01600000075995922, -0.01600000075995922, 1.008000047877431, 0.0, 0.0, 0.0, 0.0, 0.0, 1.7398942577401645E9, 0.0, 2025-02-18 15:57:37.740
8.0, 204.71651372453198, 816.8652084218338, 9.923824532423168, -36.4434551182203, -0.01600000075995922, -0.01600000075995922, 1.008000047877431, 0.0, 0.0, 0.0, 0.0, 0.0, 1.739894257740496E9, 0.0, 2025-02-18 15:57:37.740
8.0, 431.8275483837351, 1046.496935651172, 9.624632535967976, -16.532227754127234, -0.01600000075995922, -0.01600000075995922, 1.008000047877431, 0.0, 0.0, 0.0, 0.0, 0.0, 1.7398942577405438E9, 0.0, 2025-02-18 15:57:37.740
9.0, 661.52285391232, 802.2926882444881, 10.466110025998205, 29.367564402054995, -0.01600000075995922, -0.01600000075995922, 1.008000047877431, 0.0, 0.0, 0.0, 0.0, 0.0, 1.739894257741191E9, 0.0, 2025-02-18 15:57:37.741
9.0, 433.11781386844814, 1039.8473935299553, 14.912851073313504, 6.22880337620154, -0.01600000075995922, -0.01600000075995922, 1.008000047877431, 0.0, 0.0, 0.0, 0.0, 0.0, 1.7398942577412136E9, 0.0, 2025-02-18 15:57:37.741
10.0, 195.89782962901518, 818.3649083040655, 8.756975746247917, -27.9576221187599, -0.01600000075995922, -0.01600000075995922, 0.9920000471174717, 0.0, 0.0, 0.0, 0.0, 0.0, 1.7398942577704177E9, 0.0, 2025-02-18 15:57:37.770
10.0, 434.63247335050255, 1050.74172210088, 13.379492091480643, -18.877145026344806, -0.01600000075995922, -0.01600000075995922, 0.9920000471174717, 0.0, 0.0, 0.0, 0.0, 0.0, 1.7398942577704763E9, 0.0, 2025-02-18 15:57:37.770
11.0, 671.6617226921953, 1291.7988436948508, 10.002362431492656, 21.674590193200856, -0.01600000075995922, -0.01600000075995922, 0.9920000471174717, 0.0, 0.0, 0.0, 0.0, 0.0, 1.7398942577706358E9, 0.0, 2025-02-18 15:57:37.770
11.0, 916.4381747920997, 1048.378105328884, 8.614859547931701, 7.814520957414061, -0.01600000075995922, -0.01600000075995922, 0.9920000471174717, 0.0, 0.0, 0.0, 0.0, 0.0, 1.739894257770666E9, 0.0, 2025-02-18 15:57:37.770
12.0, 695.9692024542019, 828.8815069794655, 5.058214690070599, -39.92904187692329, -0.01600000075995922, -0.01600000075995922, 0.9920000471174717, 0.0, 0.0, 0.0, 0.0, 0.0, 1.7398942577716725E9, 0.0, 2025-02-18 15:57:37.771
12.0, 911.213534554001, 1049.9152042106725, 9.007549043279141, -18.955682925414294, -0.01600000075995922, -0.01600000075995922, 0.9920000471174717, 0.0, 0.0, 0.0, 0.0, 0.0, 1.7398942577717123E9, 0.0, 2025-02-18 15:57:37.771
13.0, 1155.5692479088902, 1288.9602596284822, 3.9325048034079373, 27.13110422855243, -0.01600000075995922, -0.01600000075995922, 0.9920000471174717, 0.0, 0.0, 0.0, 0.0, 0.0, 1.739894257800423E9, 0.0, 2025-02-18 15:57:37.800
13.0, 925.0848234896548, 1050.5584670030512, 16.225555957760662, 5.611719883512706, -0.01600000075995922, -0.01600000075995922, 0.9920000471174717, 0.0, 0.0, 0.0, 0.0, 0.0, 1.7398942578004827E9, 0.0, 2025-02-18 15:57:37.800
14.0, 695.8607453554869, 832.9991368306801, 16.128318558912724, -42.86112344218418, -0.01600000075995922, -0.01600000075995922, 0.9920000471174717, 0.0, 0.0, 0.0, 0.0, 0.0, 1.7398942578005922E9, 0.0, 2025-02-18 15:57:37.800
14.0, 903.5168204451911, 1054.7546347533353, 9.183324341196567, -25.781000344548374, -0.01600000075995922, -0.01600000075995922, 0.9920000471174717, 0.0, 0.0, 0.0, 0.0, 0.0, 1.7398942578006184E9, 0.0, 2025-02-18 15:57:37.800
15.0, 1148.2315641958266, 1285.7626451663673, 13.88811848545447, 28.526086912024766, -0.01600000075995922, -0.01600000075995922, 0.9920000471174717, 0.0, 0.0, 0.0, 0.0, 0.0, 1.7398942578011942E9, 0.0, 2025-02-18 15:57:37.801
15.0, 916.0230458970182, 1051.7215758892708, 12.889565197285265, 10.338953427504748, -0.01600000075995922, -0.01600000075995922, 0.9920000471174717, 0.0, 0.0, 0.0, 0.0, 0.0, 1.7398942578012233E9, 0.0, 2025-02-18 15:57:37.801
16.0, 677.5314956726506, 822.893927150406, 17.257768345531076, -27.811766020487994, -0.01600000075995922, -0.01600000075995922, 0.9920000471174717, 0.0, 0.0, 0.0, 0.0, 0.0, 1.7398942578299975E9, 0.0, 2025-02-18 15:57:37.829
16.0, 893.0675399689935, 1041.0179822160862, 12.964363196399063, -4.964717191178352, -0.01600000075995922, -0.01600000075995922, 0.9920000471174717, 0.0, 0.0, 0.0, 0.0, 0.0, 1.739894257830055E9, 0.0, 2025-02-18 15:57:37.830
17.0, 648.3434464684688, 1279.9209214355797, 11.718976511154324, 48.60934967407957, -0.01600000075995922, -0.01600000075995922, 0.9920000471174717, 0.0, 0.0, 0.0, 0.0, 0.0, 1.7398942578303E9, 0.0, 2025-02-18 15:57:37.830
17.0, 415.824516473338, 1045.4198444639333, 14.228449381422251, 24.068126164842397, -0.01600000075995922, -0.01600000075995922, 0.9920000471174717, 0.0, 0.0, 0.0, 0.0, 0.0, 1.7398942578303385E9, 0.0, 2025-02-18 15:57:37.830
18.0, 173.5070485942997, 809.7743581058457, 7.365732962731272, -19.367071920540184, -0.01600000075995922, -0.01600000075995922, 0.9920000471174717, 0.0, 0.0, 0.0, 0.0, 0.0, 1.739894257831329E9, 0.0, 2025-02-18 15:57:37.831
18.0, 385.6285642310977, 1031.5074166287668, 18.865925326477736, -4.654305494856089, -0.01600000075995922, -0.01600000075995922, 0.9920000471174717, 0.0, 0.0, 0.0, 0.0, 0.0, 1.73989425783137E9, 0.0, 2025-02-18 15:57:37.831
19.0, 150.45617521740496, 1272.9310484183952, 20.010334712918848, 42.307618248742074, -0.01600000075995922, -0.01600000075995922, 0.9920000471174717, 0.0, 0.0, 0.0, 0.0, 0.0, 1.7398942578599224E9, 0.0, 2025-02-18 15:57:37.859
19.0, -73.29268938163295, 1047.7161430367269, 20.818153103347868, 20.990188501309603, -0.01600000075995922, -0.01600000075995922, 0.9920000471174717, 0.0, 0.0, 0.0, 0.0, 0.0, 1.7398942578599627E9, 0.0, 2025-02-18 15:57:37.859
20.0, 158.05004207743332, 811.1319417897612, 7.9902962553314865, -31.12905728118494, -0.01600000075995922, -0.01600000075995922, 1.008000047877431, 0.0, 0.0, 0.0, 0.0, 0.0, 1.7398942578603768E9, 0.0, 2025-02-18 15:57:37.860
20.0, 374.82399325910956, 1033.3212681072764, 18.506894930731505, 6.591573671903461, -0.01600000075995922, -0.01600000075995922, 1.008000047877431, 0.0, 0.0, 0.0, 0.0, 0.0, 1.7398942578604088E9, 0.0, 2025-02-18 15:57:37.860
21.0, 142.38921101298183, 1273.1105636162683, 11.266448616515845, 46.19337430270389, -0.01600000075995922, -0.01600000075995922, 1.008000047877431, 0.0, 0.0, 0.0, 0.0, 0.0, 1.739894257861447E9, 0.0, 2025-02-18 15:57:37.861
21.0, -79.7589764050208, 1048.6174589260481, 11.561900713015348, 19.87195841455832, -0.01600000075995922, -0.01600000075995922, 1.008000047877431, 0.0, 0.0, 0.0, 0.0, 0.0, 1.739894257861568E9, 0.0, 2025-02-18 15:57:37.861
22.0, -319.09948391932994, 818.9445927971974, 10.608226224314421, -32.07525196997449, -0.01600000075995922, -0.01600000075995922, 1.008000047877431, 0.0, 0.0, 0.0, 0.0, 0.0, 1.7398942578899755E9, 0.0, 2025-02-18 15:57:37.889
22.0, -115.00753348739818, 1029.1101407571696, 17.84493263857439, -11.834913409780711, -0.01600000075995922, -0.01600000075995922, 1.008000047877431, 0.0, 0.0, 0.0, 0.0, 0.0, 1.7398942578900263E9, 0.0, 2025-02-18 15:57:37.890
23.0, -354.5481256493367, 786.615027630236, 20.77701420383528, 39.91034237714484, -0.01600000075995922, -0.01600000075995922, 1.008000047877431, 0.0, 0.0, 0.0, 0.0, 0.0, 1.7398942578903668E9, 0.0, 2025-02-18 15:57:37.890
23.0, -569.0033388584852, 565.7234465973452, 12.721269699279219, 20.74335510423407, -0.01600000075995922, -0.01600000075995922, 1.008000047877431, 0.0, 0.0, 0.0, 0.0, 0.0, 1.7398942578904052E9, 0.0, 2025-02-18 15:57:37.890
24.0, -324.9299879502505, 325.3993453946896, 4.594467095565051, -30.72888798592612, -0.01600000075995922, -0.01600000075995922, 1.008000047877431, 0.0, 0.0, 0.0, 0.0, 0.0, 1.7398942578912768E9, 0.0, 2025-02-18 15:57:37.891
24.0, -120.9277951172553, 537.0047548376024, 13.330873392056674, -3.1695652124471962, -0.01600000075995922, -0.01600000075995922, 1.008000047877431, 0.0, 0.0, 0.0, 0.0, 0.0, 1.7398942578913133E9, 0.0, 2025-02-18 15:57:37.891
25.0, -351.98255427973345, 301.60423192661256, 11.625479012262076, 45.25465941382572, -0.01600000075995922, -0.01600000075995922, 1.008000047877431, 0.0, 0.0, 0.0, 0.0, 0.0, 1.739894257920047E9, 0.0, 2025-02-18 15:57:37.920
25.0, -562.8960822308436, 78.85392061574385, 7.309634463395923, 24.041946865152568, -0.01600000075995922, -0.01600000075995922, 1.008000047877431, 0.0, 0.0, 0.0, 0.0, 0.0, 1.7398942579200904E9, 0.0, 2025-02-18 15:57:37.920
26.0, -318.3365443283692, -165.28487854171544, 9.213243540842086, -29.251627503428608, -0.01600000075995922, -0.01600000075995922, 1.008000047877431, 0.0, 0.0, 0.0, 0.0, 0.0, 1.7398942579203184E9, 0.0, 2025-02-18 15:57:37.920
26.0, -116.69422836741433, 44.271065725479275, 16.820200050715357, -11.741415910888463, -0.01600000075995922, -0.01600000075995922, 1.008000047877431, 0.0, 0.0, 0.0, 0.0, 0.0, 1.7398942579203484E9, 0.0, 2025-02-18 15:57:37.920
27.0, -338.52639423916116, -185.63554415060207, 17.197929946240038, 26.959068830590695, -0.01600000075995922, -0.01600000075995922, 1.008000047877431, 0.0, 0.0, 0.0, 0.0, 0.0, 1.7398942579212952E9, 0.0, 2025-02-18 15:57:37.921
27.0, -558.7634927798063, -407.6752744698897, 9.093566742260009, 17.628018441144377, -0.01600000075995922, -0.01600000075995922, 1.008000047877431, 0.0, 0.0, 0.0, 0.0, 0.0, 1.7398942579213324E9, 0.0, 2025-02-18 15:57:37.921
28.0, -323.09369707200676, -170.03455148544163, 9.190804141107947, -23.652997269760817, -0.01600000075995922, -0.01600000075995922, 1.008000047877431, 0.0, 0.0, 0.0, 0.0, 0.0, 1.739894257950111E9, 0.0, 2025-02-18 15:57:37.950
28.0, -120.83429761836305, 43.65024233283475, 12.205163505394012, -5.518222384620458, -0.01600000075995922, -0.01600000075995922, 1.008000047877431, 0.0, 0.0, 0.0, 0.0, 0.0, 1.7398942579501555E9, 0.0, 2025-02-18 15:57:37.950
29.0, -341.5968521027826, -187.9580220230855, 11.636698712129146, 37.408349306788296, -0.01600000075995922, -0.01600000075995922, 1.008000047877431, 0.0, 0.0, 0.0, 0.0, 0.0, 1.7398942579507143E9, 0.0, 2025-02-18 15:57:37.950
29.0, -551.2575135687366, -401.9420078378171, 12.021908407565206, 10.208056929055601, -0.01600000075995922, -0.01600000075995922, 1.008000047877431, 0.0, 0.0, 0.0, 0.0, 0.0, 1.7398942579510236E9, 0.0, 2025-02-18 15:57:37.951
30.0, -311.6683027073741, -159.05046531558037, 10.866279321257025, -42.90226234169677, -0.01600000075995922, -0.01600000075995922, 1.008000047877431, 0.0, 0.0, 0.0, 0.0, 0.0, 1.739894257951272E9, 0.0, 2025-02-18 15:57:37.951
30.0, -111.15169663308188, 46.13353590341285, 15.09610617114231, -16.883778349962085, -0.01600000075995922, -0.01600000075995922, 1.008000047877431, 0.0, 0.0, 0.0, 0.0, 0.0, 1.739894257951304E9, 0.0, 2025-02-18 15:57:37.951
31.0, -327.82654046593234, -174.82723327865824, 11.251489016693085, 23.873651367146522, -0.01600000075995922, -0.01600000075995922, 1.008000047877431, 0.0, 0.0, 0.0, 0.0, 0.0, 1.7398942579803565E9, 0.0, 2025-02-18 15:57:37.980
31.0, -538.1491642240435, -397.61120368912816, 15.230742569547147, 0.42447864497080445, -0.01600000075995922, -0.01600000075995922, 1.008000047877431, 0.0, 0.0, 0.0, 0.0, 0.0, 1.7398942579804032E9, 0.0, 2025-02-18 15:57:37.980
32.0, -312.4125427985564, -642.2922883401625, 5.03577529033646, -50.90938814682886, -0.01600000075995922, -0.01600000075995922, 1.008000047877431, 0.0, 0.0, 0.0, 0.0, 0.0, 1.7398942579810004E9, 0.0, 2025-02-18 15:57:37.981
32.0, -109.31914565479383, -449.18816397804767, 12.848426297772676, -24.060646364931017, -0.01600000075995922, -0.01600000075995922, 1.008000047877431, 0.0, 0.0, 0.0, 0.0, 0.0, 1.7398942579810362E9, 0.0, 2025-02-18 15:57:37.981
33.0, -331.2560287253, -670.1451932601631, 13.577706789132208, 14.65853787632659, -0.01600000075995922, -0.01600000075995922, 1.008000047877431, 0.0, 0.0, 0.0, 0.0, 0.0, 1.7398942579817276E9, 0.0, 2025-02-18 15:57:37.981
33.0, -541.2719806870446, -887.03134144051, 12.190203905571252, -1.2659561350010335, -0.01600000075995922, -0.01600000075995922, 1.008000047877431, 0.0, 0.0, 0.0, 0.0, 0.0, 1.7398942579817877E9, 0.0, 2025-02-18 15:57:37.981
34.0, -310.83430501725525, -647.677744276356, 13.47672949032858, -47.820230783429, -0.01600000075995922, -0.01600000075995922, 1.008000047877431, 0.0, 0.0, 0.0, 0.0, 0.0, 1.7398942580098977E9, 0.0, 2025-02-18 15:57:38.009
34.0, -112.78977281367406, -447.73708279524, 6.7000307706184685, -23.18550977529958, -0.01600000075995922, -0.01600000075995922, 1.008000047877431, 0.0, 0.0, 0.0, 0.0, 0.0, 1.7398942580100226E9, 0.0, 2025-02-18 15:57:38.010
35.0, -331.64497832069173, -671.8917265394703, 8.22217005258426, 16.513528254348785, -0.01600000075995922, -0.01600000075995922, 1.008000047877431, 0.0, 0.0, 0.0, 0.0, 0.0, 1.739894258010399E9, 0.0, 2025-02-18 15:57:38.010
35.0, -536.1146586481482, -879.9891098239459, 11.46092341421172, 1.7110042297281325, -0.01600000075995922, -0.01600000075995922, 1.008000047877431, 0.0, 0.0, 0.0, 0.0, 0.0, 1.7398942580104823E9, 0.0, 2025-02-18 15:57:38.010
36.0, -316.806925246492, -660.3447854262777, 12.758668698836118, -39.77570597874001, -0.01600000075995922, -0.01600000075995922, 1.008000047877431, 0.0, 0.0, 0.0, 0.0, 0.0, 1.739894258011208E9, 0.0, 2025-02-18 15:57:38.011
36.0, -130.68519410165027, -459.08767916075885, 15.08114657131955, -14.28828778071329, -0.01600000075995922, -0.01600000075995922, 1.008000047877431, 0.0, 0.0, 0.0, 0.0, 0.0, 1.739894258011238E9, 0.0, 2025-02-18 15:57:38.011
37.0, -337.04913375666365, -676.2935887873173, 7.8369603571482, 29.341385102365166, -0.01600000075995922, -0.01600000075995922, 1.008000047877431, 0.0, 0.0, 0.0, 0.0, 0.0, 1.7398942580399516E9, 0.0, 2025-02-18 15:57:38.039
37.0, -544.1030849535018, -888.7292560203932, 12.377198903355747, 3.9624240030534565, -0.01600000075995922, -0.01600000075995922, 1.008000047877431, 0.0, 0.0, 0.0, 0.0, 0.0, 1.739894258039999E9, 0.0, 2025-02-18 15:57:38.039
38.0, -329.4477870967239, -665.6816226630472, 12.953143496531993, -32.598837963771075, -0.01600000075995922, -0.01600000075995922, 1.008000047877431, 0.0, 0.0, 0.0, 0.0, 0.0, 1.7398942580403073E9, 0.0, 2025-02-18 15:57:38.040
38.0, -145.03519023163244, -468.76654024608433, 12.149065006058663, -1.4978299322538078, -0.01600000075995922, -0.01600000075995922, 1.008000047877431, 0.0, 0.0, 0.0, 0.0, 0.0, 1.739894258040336E9, 0.0, 2025-02-18 15:57:38.040
39.0, -357.2670329171233, -687.0607607597485, 11.741415910888463, 52.94763362267986, -0.01600000075995922, -0.01600000075995922, 1.008000047877431, 0.0, 0.0, 0.0, 0.0, 0.0, 1.73989425804131E9, 0.0, 2025-02-18 15:57:38.041
39.0, -561.0747509524226, -897.390864317771, 12.313620604109019, 38.38820309517905, -0.01600000075995922, -0.01600000075995922, 1.008000047877431, 0.0, 0.0, 0.0, 0.0, 0.0, 1.7398942580413513E9, 0.0, 2025-02-18 15:57:38.041
40.0, -342.3055631443858, -677.6567823211662, 9.950003832112998, 0.21878414740785956, -0.01600000075995922, -0.01600000075995922, 0.9920000471174717, 0.0, 0.0, 0.0, 0.0, 0.0, 1.7398942580700736E9, 0.0, 2025-02-18 15:57:38.070
40.0, -168.0206153593026, -482.09928358811885, 11.146771817933768, 34.01252014702186, -0.01600000075995922, -0.01600000075995922, 0.9920000471174717, 0.0, 0.0, 0.0, 0.0, 0.0, 1.7398942580701177E9, 0.0, 2025-02-18 15:57:38.070
41.0, -363.84551693918183, -702.4654086772352, 3.180784912314266, 83.85042695654556, -0.01600000075995922, -0.01600000075995922, 0.9920000471174717, 0.0, 0.0, 0.0, 0.0, 0.0, 1.7398942580707076E9, 0.0, 2025-02-18 15:57:38.070
41.0, -562.0022461414337, -899.3617915944196, 12.066787207033485, 65.7530510709621, -0.01600000075995922, -0.01600000075995922, 0.9920000471174717, 0.0, 0.0, 0.0, 0.0, 0.0, 1.73989425807074E9, 0.0, 2025-02-18 15:57:38.070
42.0, -349.48243115935475, -686.7634387132712, 13.297214292455465, 20.866771802771837, -0.01600000075995922, -0.01600000075995922, 0.9920000471174717, 0.0, 0.0, 0.0, 0.0, 0.0, 1.7398942580719814E9, 0.0, 2025-02-18 15:57:38.071
42.0, -164.79308169754222, -498.1920730974525, 10.567087324801832, 35.89368982473388, -0.01600000075995922, -0.01600000075995922, 0.9920000471174717, 0.0, 0.0, 0.0, 0.0, 0.0, 1.7398942580721457E9, 0.0, 2025-02-18 15:57:38.072
43.0, -360.61798327742144, -704.2680404558778, 15.155944570433348, 80.15540580032393, -0.01600000075995922, -0.01600000075995922, 0.9920000471174717, 0.0, 0.0, 0.0, 0.0, 0.0, 1.7398942581004007E9, 0.0, 2025-02-18 15:57:38.100
43.0, -554.111057234928, -888.2243695263751, 12.343539803754538, 49.39472866477445, -0.01600000075995922, -0.01600000075995922, 0.9920000471174717, 0.0, 0.0, 0.0, 0.0, 0.0, 1.7398942581004615E9, 0.0, 2025-02-18 15:57:38.100
44.0, -361.0910806218162, -672.5256395819597, 9.991142731625587, 11.382385515142232, -0.01600000075995922, -0.01600000075995922, 0.9920000471174717, 0.0, 0.0, 0.0, 0.0, 0.0, 1.73989425810059E9, 0.0, 2025-02-18 15:57:38.100
44.0, -172.9909424004145, -476.39967605564743, 8.64851864753291, 38.702354691457, -0.01600000075995922, -0.01600000075995922, 0.9920000471174717, 0.0, 0.0, 0.0, 0.0, 0.0, 1.739894258100622E9, 0.0, 2025-02-18 15:57:38.100
45.0, -362.5963903539814, -676.0392755903304, 15.320500168483704, 79.81881480431184, -0.01600000075995922, -0.01600000075995922, 0.9920000471174717, 0.0, 0.0, 0.0, 0.0, 0.0, 1.7398942581011448E9, 0.0, 2025-02-18 15:57:38.101
45.0, -574.2429386964068, -870.5047235363163, 13.278514792677015, 48.50463247532025, -0.01600000075995922, -0.01600000075995922, 0.9920000471174717, 0.0, 0.0, 0.0, 0.0, 0.0, 1.7398942581011724E9, 0.0, 2025-02-18 15:57:38.101
46.0, -374.61081896163523, -659.0208608419634, 5.578060783911496, -0.6526125422678888, -0.01600000075995922, -0.01600000075995922, 0.9920000471174717, 0.0, 0.0, 0.0, 0.0, 0.0, 1.7398942581299753E9, 0.0, 2025-02-18 15:57:38.129
46.0, -192.75631366623566, -463.45962220896035, 12.27996150450781, 18.506894930731505, -0.01600000075995922, -0.01600000075995922, 0.9920000471174717, 0.0, 0.0, 0.0, 0.0, 0.0, 1.739894258130021E9, 0.0, 2025-02-18 15:57:38.130
47.0, -383.51365080615506, -674.7228308059275, 11.692797211464494, 67.84365514619276, -0.01600000075995922, -0.01600000075995922, 0.9920000471174717, 0.0, 0.0, 0.0, 0.0, 0.0, 1.7398942581304576E9, 0.0, 2025-02-18 15:57:38.130
47.0, -589.0417228210717, -876.9710105597042, 9.02624854305759, 56.17890718439594, -0.01600000075995922, -0.01600000075995922, 0.9920000471174717, 0.0, 0.0, 0.0, 0.0, 0.0, 1.739894258130492E9, 0.0, 2025-02-18 15:57:38.130
48.0, -387.17314291279763, -665.3001528675668, 13.540307789575309, 5.566841084044427, -0.01600000075995922, -0.01600000075995922, 0.9920000471174717, 0.0, 0.0, 0.0, 0.0, 0.0, 1.7398942581313212E9, 0.0, 2025-02-18 15:57:38.131
48.0, -201.8891493580304, -481.47098039556295, 8.506402449216694, 20.563839906360954, -0.01600000075995922, -0.01600000075995922, 0.9920000471174717, 0.0, 0.0, 0.0, 0.0, 0.0, 1.739894258131415E9, 0.0, 2025-02-18 15:57:38.131
49.0, -386.4906111708842, -673.4176057213917, 13.813320486340672, 49.873435859102756, -0.01600000075995922, -0.01600000075995922, 0.9920000471174717, 0.0, 0.0, 0.0, 0.0, 0.0, 1.7398942581603165E9, 0.0, 2025-02-18 15:57:38.160
49.0, -569.1005762573332, -867.6287404703908, 10.926117720548064, 19.378291620407254, -0.01600000075995922, -0.01600000075995922, 0.9920000471174717, 0.0, 0.0, 0.0, 0.0, 0.0, 1.7398942581603703E9, 0.0, 2025-02-18 15:57:38.160
50.0, -370.6240856088698, -672.5742582813837, 14.411704479251057, -31.099138081539422, -0.01600000075995922, -0.01600000075995922, 0.9920000471174717, 0.0, 0.0, 0.0, 0.0, 0.0, 1.7398942581604867E9, 0.0, 2025-02-18 15:57:38.160
50.0, -191.82507857726887, -490.36072259023786, 10.054721030872315, -0.5591150433756411, -0.01600000075995922, -0.01600000075995922, 0.9920000471174717, 0.0, 0.0, 0.0, 0.0, 0.0, 1.739894258160514E9, 0.0, 2025-02-18 15:57:38.160
51.0, -372.55200403602794, -683.5190755017102, 5.196590988431126, 39.61115038068965, -0.01600000075995922, 0.0, 0.9920000471174717, 0.0, 0.0, 0.0, 0.0, 0.0, 1.7398942581612184E9, 0.0, 2025-02-18 15:57:38.161
51.0, -558.6999144805595, -871.2601833273657, 9.164624841418117, 8.031435154844075, -0.01600000075995922, 0.0, 0.9920000471174717, 0.0, 0.0, 0.0, 0.0, 0.0, 1.7398942581612465E9, 0.0, 2025-02-18 15:57:38.161
52.0, -368.1033930387348, -678.2327269143425, 3.2331435116939247, -34.13967674551532, -0.01600000075995922, 0.0, 0.9920000471174717, 0.0, 0.0, 0.0, 0.0, 0.0, 1.7398942581900508E9, 0.0, 2025-02-18 15:57:38.190
52.0, -186.44710244098678, -500.4210534710437, 12.205163505394012, -11.595559812616557, -0.01600000075995922, 0.0, 0.9920000471174717, 0.0, 0.0, 0.0, 0.0, 0.0, 1.7398942581901033E9, 0.0, 2025-02-18 15:57:38.190
53.0, -362.2747589577921, -683.2722421046346, 13.734782587271184, 23.409903772640973, -0.01600000075995922, 0.0, 0.9920000471174717, 0.0, 0.0, 0.0, 0.0, 0.0, 1.7398942581902575E9, 0.0, 2025-02-18 15:57:38.190
53.0, -552.3533042557538, -869.652026346419, 14.123732182662934, -2.814274716656655, -0.01600000075995922, 0.0, 0.9920000471174717, 0.0, 0.0, 0.0, 0.0, 0.0, 1.7398942581902847E9, 0.0, 2025-02-18 15:57:38.190
54.0, -375.94596324581653, -681.6771747735329, 15.541154265869409, -46.660861797165126, -0.01600000075995922, 0.0, 0.9920000471174717, 0.0, 0.0, 0.0, 0.0, 0.0, 1.7398942581912065E9, 0.0, 2025-02-18 15:57:38.191
54.0, -193.1153440619819, -509.692265461199, 8.401685250457376, -0.2786225466988981, -0.01600000075995922, 0.0, 0.9920000471174717, 0.0, 0.0, 0.0, 0.0, 0.0, 1.7398942581912572E9, 0.0, 2025-02-18 15:57:38.191
55.0, -376.0450705946423, -687.838659950532, 6.120346277486533, 54.49969210429117, -0.01600000075995922, 0.0, 0.9920000471174717, 0.0, 0.0, 0.0, 0.0, 0.0, 1.7398942582201023E9, 0.0, 2025-02-18 15:57:38.220
55.0, -555.7453935155645, -888.9499101177789, 12.6539515000768, 32.37070406647399, -0.01600000075995922, 0.0, 0.9920000471174717, 0.0, 0.0, 0.0, 0.0, 0.0, 1.7398942582201777E9, 0.0, 2025-02-18 15:57:38.220
56.0, -374.71553616039455, -695.9822921040468, 8.887872244697064, -25.234974951017648, -0.01600000075995922, 0.0, 0.9920000471174717, 0.0, 0.0, 0.0, 0.0, 0.0, 1.7398942582206275E9, 0.0, 2025-02-18 15:57:38.220
56.0, -199.61155028501526, -505.8738276064396, 7.317114263307303, 4.396252397913486, -0.01600000075995922, 0.0, 0.9920000471174717, 0.0, 0.0, 0.0, 0.0, 0.0, 1.739894258220662E9, 0.0, 2025-02-18 15:57:38.220
57.0, -367.4059016969986, -683.6462321002036, 12.178984205704182, 51.092643244657665, -0.01600000075995922, 0.0, 0.9920000471174717, 0.0, 0.0, 0.0, 0.0, 0.0, 1.7398942582215388E9, 0.0, 2025-02-18 15:57:38.221
57.0, -554.0399991357699, -877.0944272582419, 21.96256248978898, 25.380831049289554, -0.01600000075995922, 0.0, 0.9920000471174717, 0.0, 0.0, 0.0, 0.0, 0.0, 1.7398942582215817E9, 0.0, 2025-02-18 15:57:38.221
58.0, -369.59935302101076, -690.9409069637768, 18.37599843228236, -6.602793371770531, -0.01600000075995922, 0.0, 0.9920000471174717, 0.0, 0.0, 0.0, 0.0, 0.0, 1.7398942582499104E9, 0.0, 2025-02-18 15:57:38.249
58.0, -203.13079614331946, -506.0122039048001, 17.46346284309402, 30.467094989027828, -0.01600000075995922, 0.0, 0.9920000471174717, 0.0, 0.0, 0.0, 0.0, 0.0, 1.7398942582499585E9, 0.0, 2025-02-18 15:57:38.249
59.0, -363.6323426417075, -686.656851564534, 11.03831471921876, 75.03174286102876, -0.01600000075995922, 0.0, 0.9920000471174717, 0.0, 0.0, 0.0, 0.0, 0.0, 1.7398942582503295E9, 0.0, 2025-02-18 15:57:38.250
59.0, -548.6246239999309, -870.6244003348984, 7.45175066171214, 38.290965696331114, -0.01600000075995922, 0.0, 0.9920000471174717, 0.0, 0.0, 0.0, 0.0, 0.0, 1.739894258250363E9, 0.0, 2025-02-18 15:57:38.250
60.0, -359.8082949370146, -681.6846545734443, 9.897645232733339, -13.970396284479648, -0.01600000075995922, 0.0, 0.9920000471174717, 0.0, 0.0, 0.0, 0.0, 0.0, 1.7398942582512033E9, 0.0, 2025-02-18 15:57:38.251
60.0, -192.6291570677422, -500.1293412744999, 9.718130034860224, 7.399392062332481, -0.01600000075995922, 0.0, 0.9920000471174717, 0.0, 0.0, 0.0, 0.0, 0.0, 1.739894258251239E9, 0.0, 2025-02-18 15:57:38.251
61.0, -343.7061556777917, -670.4930039560422, 14.355605979915708, 53.60585601488128, -0.01600000075995922, 0.0, 0.9920000471174717, 0.0, 0.0, 0.0, 0.0, 0.0, 1.739894258280547E9, 0.0, 2025-02-18 15:57:38.280
61.0, -529.0350280320272, -847.6614146069624, 6.546694872435182, 26.192389339674264, -0.01600000075995922, 0.0, 0.9920000471174717, 0.0, 0.0, 0.0, 0.0, 0.0, 1.7398942582808552E9, 0.0, 2025-02-18 15:57:38.280
62.0, -371.7647550953552, -678.1280097155832, 13.020461695734411, -8.25208925222978, -0.01600000075995922, 0.0, 0.9920000471174717, 0.0, 0.0, 0.0, 0.0, 0.0, 1.7398942582813635E9, 0.0, 2025-02-18 15:57:38.281
62.0, -189.2931663072668, -509.8792604589835, 17.96086953720078, 19.13145822333172, -0.01600000075995922, 0.0, 0.9920000471174717, 0.0, 0.0, 0.0, 0.0, 0.0, 1.7398942582814112E9, 0.0, 2025-02-18 15:57:38.281
63.0, -347.9247628278099, -674.0945276133716, 15.604732565116137, 62.27494411217049, -0.01600000075995922, 0.0, 0.9920000471174717, 0.0, 0.0, 0.0, 0.0, 0.0, 1.7398942582815344E9, 0.0, 2025-02-18 15:57:38.281
63.0, -526.2712419647723, -851.3003372638486, 13.779661386739463, 18.903324326034635, -0.01600000075995922, 0.0, 0.9920000471174717, 0.0, 0.0, 0.0, 0.0, 0.0, 1.7398942582815616E9, 0.0, 2025-02-18 15:57:38.281
64.0, -362.8039548015222, -672.2189677855931, 13.173797593917698, -35.60197762819007, -0.01600000075995922, 0.0, 0.9920000471174717, 0.0, 0.0, 0.0, 0.0, 0.0, 1.7398942583099427E9, 0.0, 2025-02-18 15:57:38.309
64.0, -196.49621362192556, -498.0499568991363, 15.07366677140817, -8.293228151742369, -0.01600000075995922, 0.0, 0.9920000471174717, 0.0, 0.0, 0.0, 0.0, 0.0, 1.739894258309981E9, 0.0, 2025-02-18 15:57:38.309
65.0, -345.1871560602449, -657.8745815055445, 16.449949955102056, 33.047625958453864, -0.01600000075995922, 0.0, 0.9920000471174717, 0.0, 0.0, 0.0, 0.0, 0.0, 1.739894258310249E9, 0.0, 2025-02-18 15:57:38.310
65.0, -534.6149587659165, -847.4183211098425, 11.285148116294295, 4.841300492640585, -0.01600000075995922, 0.0, 0.9920000471174717, 0.0, 0.0, 0.0, 0.0, 0.0, 1.73989425831027E9, 0.0, 2025-02-18 15:57:38.310
66.0, -375.0970059558749, -682.6420689621009, 9.246902640443295, -29.98838779469952, -0.01600000075995922, 0.0, 0.9920000471174717, 0.0, 0.0, 0.0, 0.0, 0.0, 1.7398942583113976E9, 0.0, 2025-02-18 15:57:38.311
66.0, -204.53325862670317, -520.897005728446, 9.011288943234831, -1.8755598277784884, -0.01600000075995922, 0.0, 0.9920000471174717, 0.0, 0.0, 0.0, 0.0, 0.0, 1.739894258311428E9, 0.0, 2025-02-18 15:57:38.311
67.0, -350.6361902956851, -669.1541197719052, 13.05786069529131, 35.437422030139714, -0.01600000075995922, 0.0, 0.9920000471174717, 0.0, 0.0, 0.0, 0.0, 0.0, 1.7398942583401055E9, 0.0, 2025-02-18 15:57:38.340
67.0, -523.0885871024802, -837.088717432227, 11.707756811287254, 5.780015381518751, -0.01600000075995922, 0.0, 0.9920000471174717, 0.0, 0.0, 0.0, 0.0, 0.0, 1.7398942583401515E9, 0.0, 2025-02-18 15:57:38.340
68.0, -364.109179886058, -680.3682097890414, 12.571673701051623, -40.15343587426469, -0.01600000075995922, 0.0, 0.9920000471174717, 0.0, 0.0, 0.0, 0.0, 0.0, 1.7398942583404174E9, 0.0, 2025-02-18 15:57:38.340
68.0, -177.08613285189494, -510.2794297542423, 8.951450543943793, -8.861692945007235, -0.01600000075995922, 0.0, 0.9920000471174717, 0.0, 0.0, 0.0, 0.0, 0.0, 1.739894258340458E9, 0.0, 2025-02-18 15:57:38.340
69.0, -317.14912609243765, -660.582269073464, 9.695690635126084, 31.319792178925127, -0.01600000075995922, 0.0, 0.9920000471174717, 0.0, 0.0, 0.0, 0.0, 0.0, 1.7398942583415246E9, 0.0, 2025-02-18 15:57:38.341
69.0, -480.5584448063746, -843.1884942599572, 10.331473627593368, 1.5389688317663968, -0.01600000075995922, 0.0, 0.9920000471174717, 0.0, 0.0, 0.0, 0.0, 0.0, 1.739894258341562E9, 0.0, 2025-02-18 15:57:38.341
70.0, -334.6799071347341, -689.6543813790195, 13.738522487226874, -41.043532063718885, -0.01600000075995922, 0.0, 1.008000047877431, 0.0, 0.0, 0.0, 0.0, 0.0, 1.739894258370247E9, 0.0, 2025-02-18 15:57:38.370
70.0, -164.51258920086548, -520.6576521312818, 13.607625988777727, -1.4005925334058702, -0.01600000075995922, 0.0, 1.008000047877431, 0.0, 0.0, 0.0, 0.0, 0.0, 1.7398942583702996E9, 0.0, 2025-02-18 15:57:38.370
71.0, -301.13861438212916, -668.7913494762033, 14.344386280048639, 45.25839931378141, -0.01600000075995922, 0.0, 1.008000047877431, 0.0, 0.0, 0.0, 0.0, 0.0, 1.7398942583703916E9, 0.0, 2025-02-18 15:57:38.370
71.0, -483.4568672720343, -847.5080787087791, 11.561900713015348, 25.018060753587633, -0.01600000075995922, 0.0, 1.008000047877431, 0.0, 0.0, 0.0, 0.0, 0.0, 1.7398942583704193E9, 0.0, 2025-02-18 15:57:38.370
72.0, -329.69836039375514, -702.9946045209654, 12.68013079976663, -21.255721398163587, -0.01600000075995922, 0.0, 1.008000047877431, 0.0, 0.0, 0.0, 0.0, 0.0, 1.7398942583712096E9, 0.0, 2025-02-18 15:57:38.371
72.0, -172.25792200909927, -528.7470557354391, 15.406517867464572, 7.85565985692665, -0.01600000075995922, 0.0, 1.008000047877431, 0.0, 0.0, 0.0, 0.0, 0.0, 1.7398942583712325E9, 0.0, 2025-02-18 15:57:38.371
73.0, -300.1625004936941, -673.4662244208157, 10.080900330562145, 37.471927606035024, -0.01600000075995922, 0.0, 1.008000047877431, 0.0, 0.0, 0.0, 0.0, 0.0, 1.739894258399873E9, 0.0, 2025-02-18 15:57:38.399
73.0, -478.72215392813087, -845.892441927921, 17.994528636801988, 15.137245070654899, -0.01600000075995922, 0.0, 1.008000047877431, 0.0, 0.0, 0.0, 0.0, 0.0, 1.7398942583999112E9, 0.0, 2025-02-18 15:57:38.399
74.0, -340.2037393692881, -693.3344429354183, 15.12602537078783, -21.07246630033478, -0.01600000075995922, 0.0, 1.008000047877431, 0.0, 0.0, 0.0, 0.0, 0.0, 1.7398942584002483E9, 0.0, 2025-02-18 15:57:38.400
74.0, -176.74580195592716, -527.3071942524984, 21.435236596036702, 11.831173509825021, -0.01600000075995922, 0.0, 1.008000047877431, 0.0, 0.0, 0.0, 0.0, 0.0, 1.7398942584003265E9, 0.0, 2025-02-18 15:57:38.400
75.0, -302.9749052603729, -665.3693410167471, 16.532227754127234, 53.7853712127544, -0.01600000075995922, 0.0, 1.008000047877431, 0.0, 0.0, 0.0, 0.0, 0.0, 1.7398942584011967E9, 0.0, 2025-02-18 15:57:38.401
75.0, -487.0845702290535, -849.9651929796673, 10.66806462360546, 37.393389706965536, -0.01600000075995922, 0.0, 1.008000047877431, 0.0, 0.0, 0.0, 0.0, 0.0, 1.7398942584012234E9, 0.0, 2025-02-18 15:57:38.401
76.0, -356.5396223757416, -709.6404067422263, 14.164871082175523, 8.330627151299268, -0.01600000075995922, 0.0, 1.008000047877431, 0.0, 0.0, 0.0, 0.0, 0.0, 1.7398942584605806E9, 0.0, 2025-02-18 15:57:38.460
76.0, -175.85944566642866, -544.4920345488936, 12.811027298215777, 39.23716038512066, -0.01600000075995922, 0.0, 1.008000047877431, 0.0, 0.0, 0.0, 0.0, 0.0, 1.7398942584606335E9, 0.0, 2025-02-18 15:57:38.460
77.0, -308.0499495002441, -674.3488408103585, 7.653705259319395, 59.941246539819986, -0.01600000075995922, 0.0, 1.008000047877431, 0.0, 0.0, 0.0, 0.0, 0.0, 1.73989425846076E9, 0.0, 2025-02-18 15:57:38.460
77.0, -474.35769067984074, -845.0883634374477, 14.026494783814996, 21.09490570006892, -0.01600000075995922, 0.0, 1.008000047877431, 0.0, 0.0, 0.0, 0.0, 0.0, 1.7398942584607892E9, 0.0, 2025-02-18 15:57:38.460
78.0, -347.3432083847001, -701.6669400366955, 12.175244305748492, -27.52379372389987, -0.01600000075995922, 0.0, 1.008000047877431, 0.0, 0.0, 0.0, 0.0, 0.0, 1.7398942584610453E9, 0.0, 2025-02-18 15:57:38.461
78.0, -176.65230445703492, -538.5418537193909, 13.734782587271184, 5.237729887943715, -0.01600000075995922, 0.0, 1.008000047877431, 0.0, 0.0, 0.0, 0.0, 0.0, 1.7398942584610748E9, 0.0, 2025-02-18 15:57:38.461
79.0, -298.1616540174, -660.4663321748376, 10.447410526219755, 45.01530581666157, -0.01600000075995922, 0.0, 1.008000047877431, 0.0, 0.0, 0.0, 0.0, 0.0, 1.7398942584626343E9, 0.0, 2025-02-18 15:57:38.462
79.0, -469.5893182363361, -842.7284865654074, 11.363686015363783, 20.3244863091968, -0.01600000075995922, 0.0, 1.008000047877431, 0.0, 0.0, 0.0, 0.0, 0.0, 1.7398942584626749E9, 0.0, 2025-02-18 15:57:38.462
80.0, -360.5375754283741, -696.2665245006792, 10.226756428834051, -5.750096181873232, -0.01600000075995922, 0.0, 0.9920000471174717, 0.0, 0.0, 0.0, 0.0, 0.0, 1.7398942584629333E9, 0.0, 2025-02-18 15:57:38.462
80.0, -187.39329712977633, -548.53860630095, 10.346433227416128, 23.264047674369067, -0.01600000075995922, 0.0, 0.9920000471174717, 0.0, 0.0, 0.0, 0.0, 0.0, 1.7398942584630897E9, 0.0, 2025-02-18 15:57:38.463
81.0, -298.4571061138995, -665.4104799162596, 4.321454398799688, 55.73385908966884, -0.01600000075995922, 0.0, 0.9920000471174717, 0.0, 0.0, 0.0, 0.0, 0.0, 1.7398942584632833E9, 0.0, 2025-02-18 15:57:38.463
81.0, -472.255866904743, -840.9894330860116, 0.7461100411601365, 10.769041922409087, -0.01600000075995922, 0.0, 0.9920000471174717, 0.0, 0.0, 0.0, 0.0, 0.0, 1.73989425846331E9, 0.0, 2025-02-18 15:57:38.463
82.0, -356.62564007472247, -711.0690485252999, 11.771335110533983, -33.22714115632698, -0.01600000075995922, 0.0, 0.9920000471174717, 0.0, 0.0, 0.0, 0.0, 0.0, 1.7398942584908016E9, 0.0, 2025-02-18 15:57:38.490
82.0, -190.26928019570187, -536.6419845419005, 23.338845673482865, 6.524255472701043, -0.01600000075995922, 0.0, 0.9920000471174717, 0.0, 0.0, 0.0, 0.0, 0.0, 1.7398942584908924E9, 0.0, 2025-02-18 15:57:38.490
83.0, -306.0528429239057, -664.2698104297742, -5.338707186747342, 32.8494112608023, -0.01600000075995922, 0.0, 0.9920000471174717, 0.0, 0.0, 0.0, 0.0, 0.0, 1.7398942585200424E9, 0.0, 2025-02-18 15:57:38.520
83.0, -476.90830244962126, -834.1304565672763, -2.6721585183404386, 11.46466331416741, -0.01600000075995922, 0.0, 0.9920000471174717, 0.0, 0.0, 0.0, 0.0, 0.0, 1.739894258520095E9, 0.0, 2025-02-18 15:57:38.520
84.0, -355.9150590831414, -709.5730885430239, 13.323393592145294, -28.645763710606843, -0.01600000075995922, 0.0, 0.9920000471174717, 0.0, 0.0, 0.0, 0.0, 0.0, 1.7398942585203505E9, 0.0, 2025-02-18 15:57:38.520
84.0, -196.2194610252045, -538.1342046242207, 4.23543669981882, -3.734290105756372, -0.01600000075995922, 0.0, 0.9920000471174717, 0.0, 0.0, 0.0, 0.0, 0.0, 1.7398942585203705E9, 0.0, 2025-02-18 15:57:38.520
85.0, -294.1188221652992, -651.3746353825554, 15.593512865249068, 34.44634854188189, -0.01600000075995922, 0.0, 0.9920000471174717, 0.0, 0.0, 0.0, 0.0, 0.0, 1.7398942585209565E9, 0.0, 2025-02-18 15:57:38.520
85.0, -463.64661720674485, -822.4619687055238, 13.559007289353758, -10.361392827238888, -0.01600000075995922, 0.0, 0.9920000471174717, 0.0, 0.0, 0.0, 0.0, 0.0, 1.739894258520991E9, 0.0, 2025-02-18 15:57:38.520
86.0, -350.64927994553, -698.1963128778152, 8.24086955236271, -48.721546672750264, -0.01600000075995922, 0.0, 0.9920000471174717, 0.0, 0.0, 0.0, 0.0, 0.0, 1.7398942585217092E9, 0.0, 2025-02-18 15:57:38.521
86.0, -185.00350105809048, -536.8701184391975, 10.25667562847957, -9.374059238936752, -0.01600000075995922, 0.0, 0.9920000471174717, 0.0, 0.0, 0.0, 0.0, 0.0, 1.7398942585217402E9, 0.0, 2025-02-18 15:57:38.521
87.0, -280.565424725879, -644.0780905690044, 11.015875319484621, 22.560946482699364, -0.01600000075995922, 0.0, 0.9920000471174717, 0.0, 0.0, 0.0, 0.0, 0.0, 1.7398942585229843E9, 0.0, 2025-02-18 15:57:38.522
87.0, -451.1067326553166, -812.0912261283956, 9.179584441240877, -9.961223531980067, -0.01600000075995922, 0.0, 0.9920000471174717, 0.0, 0.0, 0.0, 0.0, 0.0, 1.7398942585230343E9, 0.0, 2025-02-18 15:57:38.523
88.0, -347.30206948518753, -692.7996372417547, 10.499769125599414, -41.92988835321739, -0.01600000075995922, 0.0, 0.9920000471174717, 0.0, 0.0, 0.0, 0.0, 0.0, 1.73989425855032E9, 0.0, 2025-02-18 15:57:38.550
88.0, -190.1047245976515, -539.3870711093768, 16.562146953772753, 2.60858021909371, -0.01600000075995922, 0.0, 0.9920000471174717, 0.0, 0.0, 0.0, 0.0, 0.0, 1.7398942585504763E9, 0.0, 2025-02-18 15:57:38.550
89.0, -284.54093837877735, -642.0473248930648, 11.217829917091876, 28.458768712822348, -0.01600000075995922, 0.0, 0.9920000471174717, 0.0, 0.0, 0.0, 0.0, 0.0, 1.739894258550778E9, 0.0, 2025-02-18 15:57:38.550
89.0, -458.60897196643054, -807.794081079308, 3.584694107528776, -4.882439392153174, -0.01600000075995922, 0.0, 0.9920000471174717, 0.0, 0.0, 0.0, 0.0, 0.0, 1.7398942585508115E9, 0.0, 2025-02-18 15:57:38.550
90.0, -355.8327812841162, -707.2356510707177, 9.02998844301328, -48.77016537217423, -0.01600000075995922, 0.0, 0.9920000471174717, 0.0, 0.0, 0.0, 0.0, 0.0, 1.7398942585513644E9, 0.0, 2025-02-18 15:57:38.551
90.0, -200.73352027172223, -543.0222538663074, 4.676744894590229, -7.631265859585255, -0.01600000075995922, 0.0, 0.9920000471174717, 0.0, 0.0, 0.0, 0.0, 0.0, 1.739894258551404E9, 0.0, 2025-02-18 15:57:38.551
91.0, -291.4148744973354, -645.6189293507487, 11.991989207919687, 35.88994992477819, -0.01600000075995922, 0.0, 0.9920000471174717, 0.0, 0.0, 0.0, 0.0, 0.0, 1.7398942585802615E9, 0.0, 2025-02-18 15:57:38.580
91.0, -468.75906044617295, -809.8248467552476, 9.617152736056596, 0.8545671398751438, -0.01600000075995922, 0.0, 0.9920000471174717, 0.0, 0.0, 0.0, 0.0, 0.0, 1.7398942585803177E9, 0.0, 2025-02-18 15:57:38.580
92.0, -380.72555538918823, -727.0010223365389, 10.970996520016342, -24.950742554385215, -0.01600000075995922, 0.0, 0.9920000471174717, 0.0, 0.0, 0.0, 0.0, 0.0, 1.739894258580614E9, 0.0, 2025-02-18 15:57:38.580
92.0, -209.7878180644475, -553.2172211455181, 10.350173127371818, 14.25836858106777, -0.01600000075995922, 0.0, 0.9920000471174717, 0.0, 0.0, 0.0, 0.0, 0.0, 1.7398942585806527E9, 0.0, 2025-02-18 15:57:38.580
93.0, -298.54312381288037, -638.7262937324122, 15.986202360596508, 53.99854551022872, -0.01600000075995922, 0.0, 0.9920000471174717, 0.0, 0.0, 0.0, 0.0, 0.0, 1.739894258581385E9, 0.0, 2025-02-18 15:57:38.581
93.0, -467.38277726247907, -824.4702949817292, 11.651658311951905, 22.72550208074972, -0.01600000075995922, 0.0, 0.9920000471174717, 0.0, 0.0, 0.0, 0.0, 0.0, 1.7398942585814123E9, 0.0, 2025-02-18 15:57:38.581
94.0, -372.79322758316994, -723.6650315760635, 8.599899948108941, -11.229049616958946, -0.01600000075995922, 0.0, 0.9920000471174717, 0.0, 0.0, 0.0, 0.0, 0.0, 1.7398942586100688E9, 0.0, 2025-02-18 15:57:38.610
94.0, -219.7172524468042, -557.222653998062, 8.446564049925655, 26.37190453754738, -0.01600000075995922, 0.0, 0.9920000471174717, 0.0, 0.0, 0.0, 0.0, 0.0, 1.7398942586101017E9, 0.0, 2025-02-18 15:57:38.610
95.0, -292.28627118701115, -642.2904183901846, 10.24171602865681, 53.01121192192659, -0.01600000075995922, 0.0, 0.9920000471174717, 0.0, 0.0, 0.0, 0.0, 0.0, 1.7398942586105328E9, 0.0, 2025-02-18 15:57:38.610
95.0, -456.11819859594107, -807.8875785782002, 9.665771435480565, 20.72465560445562, -0.01600000075995922, 0.0, 0.9920000471174717, 0.0, 0.0, 0.0, 0.0, 0.0, 1.7398942586106367E9, 0.0, 2025-02-18 15:57:38.610
96.0, -378.0403072210029, -720.8077480099164, 17.96460943715647, -17.15679104672745, -0.01600000075995922, 0.0, 0.9920000471174717, 0.0, 0.0, 0.0, 0.0, 0.0, 1.739894258611343E9, 0.0, 2025-02-18 15:57:38.611
96.0, -213.7483721175231, -556.8860630020499, 8.988849543500692, 20.182370110880584, -0.01600000075995922, 0.0, 0.9920000471174717, 0.0, 0.0, 0.0, 0.0, 0.0, 1.7398942586113853E9, 0.0, 2025-02-18 15:57:38.611
97.0, -283.785478587728, -634.4029693836346, 11.303847616072744, 50.01929195737466, -0.01600000075995922, 0.0, 0.9920000471174717, 0.0, 0.0, 0.0, 0.0, 0.0, 1.739894258639996E9, 0.0, 2025-02-18 15:57:38.639
97.0, -444.9134583286941, -806.141045298893, 16.26669485727325, 19.370811820495874, -0.01600000075995922, 0.0, 0.9920000471174717, 0.0, 0.0, 0.0, 0.0, 0.0, 1.7398942586400473E9, 0.0, 2025-02-18 15:57:38.640
98.0, -376.35361234098673, -724.8692793617956, 10.600746424403042, -21.1397844995372, -0.01600000075995922, 0.0, 0.9920000471174717, 0.0, 0.0, 0.0, 0.0, 0.0, 1.7398942586403663E9, 0.0, 2025-02-18 15:57:38.640
98.0, -212.9704729267396, -569.6054627513513, 14.587479777168483, 22.523547483142465, -0.01600000075995922, 0.0, 0.9920000471174717, 0.0, 0.0, 0.0, 0.0, 0.0, 1.7398942586403916E9, 0.0, 2025-02-18 15:57:38.640
99.0, -277.7829391588457, -636.8264245549217, 2.776875717099756, 43.811058030929416, -0.01600000075995922, 0.0, 0.9920000471174717, 0.0, 0.0, 0.0, 0.0, 0.0, 1.739894258641123E9, 0.0, 2025-02-18 15:57:38.641
99.0, -448.8852320816368, -796.6454393113963, 8.27078875200823, 19.45308961952105, -0.01600000075995922, 0.0, 0.9920000471174717, 0.0, 0.0, 0.0, 0.0, 0.0, 1.7398942586411436E9, 0.0, 2025-02-18 15:57:38.641
100.0, -400.9584141494706, -728.1716110226698, 13.342093091923743, -8.195990752894431, -0.01600000075995922, 0.0, 0.9920000471174717, 0.0, 0.0, 0.0, 0.0, 0.0, 1.739894258669955E9, 0.0, 2025-02-18 15:57:38.669
100.0, -222.05842981906608, -573.1508879093453, 13.001762195955962, 23.368764873128384, -0.01600000075995922, 0.0, 0.9920000471174717, 0.0, 0.0, 0.0, 0.0, 0.0, 1.739894258670081E9, 0.0, 2025-02-18 15:57:38.670
0.0, -282.8074947493151, -146.87148110987619, 11.991989207919687, 49.82668710965663, -0.01600000075995922, 0.0, 0.9920000471174717, 0.0, 0.0, 0.0, 0.0, 0.0, 1.7398942586704795E9, 0.0, 2025-02-18 15:57:38.670
1.0, -447.5332582476549, -316.05146545544267, 14.213489781599492, 22.47305883374065, -0.01600000075995922, 0.0, 0.9920000471174717, 0.0, 0.0, 0.0, 0.0, 0.0, 1.739894258670951E9, 0.0, 2025-02-18 15:57:38.670
1.0, -386.7972829672508, -252.91821430344135, 12.27248170459643, -14.46593302860856, -0.01600000075995922, 0.0, 0.9920000471174717, 0.0, 0.0, 0.0, 0.0, 0.0, 1.739894258671021E9, 0.0, 2025-02-18 15:57:38.671
2.0, -222.66990346182138, -75.76850315229967, 9.198283941019326, 12.195813755504787, -0.01600000075995922, 0.0, 0.9920000471174717, 0.0, 0.0, 0.0, 0.0, 0.0, 1.7398942586718988E9, 0.0, 2025-02-18 15:57:38.671
2.0, -273.3081488618627, -138.61378200771287, 13.45429009059444, 34.92692568618804, -0.01600000075995922, 0.0, 0.9920000471174717, 0.0, 0.0, 0.0, 0.0, 0.0, 1.7398942586719365E9, 0.0, 2025-02-18 15:57:38.671
3.0, -433.2169212172739, -304.31191949453205, 10.791481322143227, -9.6339822858572, -0.01600000075995922, 0.0, 0.9920000471174717, 0.0, 0.0, 0.0, 0.0, 0.0, 1.7398942587001543E9, 0.0, 2025-02-18 15:57:38.700
3.0, -377.6083487761207, -234.24489382468164, 14.105032682884485, -43.723170381970704, -0.01600000075995922, 0.0, 0.9920000471174717, 0.0, 0.0, 0.0, 0.0, 0.0, 1.7398942587001877E9, 0.0, 2025-02-18 15:57:38.700
4.0, -224.4014771413058, -71.74811069993302, 18.065586735960096, -5.968880329281092, -0.01600000075995922, 0.0, 0.9920000471174717, 0.0, 0.0, 0.0, 0.0, 0.0, 1.739894258700626E9, 0.0, 2025-02-18 15:57:38.700
4.0, -270.0619157003239, -133.35174277005717, 13.682423987891525, 22.035490538924932, -0.01600000075995922, 0.0, 0.9920000471174717, 0.0, 0.0, 0.0, 0.0, 0.0, 1.7398942587006714E9, 0.0, 2025-02-18 15:57:38.700
5.0, -433.08976461878046, -305.19453588407487, 11.995729107875377, -3.1115967631340027, -0.01600000075995922, 0.0, 0.9920000471174717, 0.0, 0.0, 0.0, 0.0, 0.0, 1.7398942587299836E9, 0.0, 2025-02-18 15:57:38.729
5.0, -383.9699186007492, -248.92026125080884, 9.220723340753466, -35.218637882731855, -0.01600000075995922, 0.0, 0.9920000471174717, 0.0, 0.0, 0.0, 0.0, 0.0, 1.7398942587300365E9, 0.0, 2025-02-18 15:57:38.730
6.0, -223.78439364861697, -90.64956507598981, 15.638391664717346, -0.1533358981832862, -0.01600000075995922, 0.0, 0.9920000471174717, 0.0, 0.0, 0.0, 0.0, 0.0, 1.739894258730418E9, 0.0, 2025-02-18 15:57:38.730
6.0, -273.8766136551276, -134.75794515339658, 13.07656019506976, 26.755244283005595, -0.01600000075995922, 0.0, 0.9920000471174717, 0.0, 0.0, 0.0, 0.0, 0.0, 1.7398942587304523E9, 0.0, 2025-02-18 15:57:38.730
7.0, -440.02353913662955, -301.93334312271327, 11.288888016249985, -1.9148287773132324, -0.01600000075995922, 0.0, 0.9920000471174717, 0.0, 0.0, 0.0, 0.0, 0.0, 1.7398942587310789E9, 0.0, 2025-02-18 15:57:38.731
7.0, -397.9908035346307, -255.43516697362065, 9.688210835214704, -23.071442826651037, -0.01600000075995922, 0.0, 0.9920000471174717, 0.0, 0.0, 0.0, 0.0, 0.0, 1.7398942587311084E9, 0.0, 2025-02-18 15:57:38.731
8.0, -240.27361255325377, -97.10463239951059, 14.740815675351769, 16.287264307029545, -0.01600000075995922, 0.0, 0.9920000471174717, 0.0, 0.0, 0.0, 0.0, 0.0, 1.7398942587318416E9, 0.0, 2025-02-18 15:57:38.731
8.0, -273.06879526469857, -135.6405615429394, 8.483963049482554, 44.93489796761423, -0.01600000075995922, 0.0, 0.9920000471174717, 0.0, 0.0, 0.0, 0.0, 0.0, 1.7398942587319157E9, 0.0, 2025-02-18 15:57:38.731
9.0, -443.99531288957223, -305.6545435786247, 11.030834919307381, 13.889988435432315, -0.01600000075995922, 0.0, 0.9920000471174717, 0.0, 0.0, 0.0, 0.0, 0.0, 1.7398942587599788E9, 0.0, 2025-02-18 15:57:38.759
9.0, -408.3914653114043, -265.8283489504829, 9.755529034417123, 1.0322123877704144, -0.01600000075995922, 0.0, 0.9920000471174717, 0.0, 0.0, 0.0, 0.0, 0.0, 1.739894258760024E9, 0.0, 2025-02-18 15:57:38.760
10.0, -252.66016120649874, -102.91269703069702, 13.042901095468551, 44.97229696717113, -0.01600000075995922, 0.0, 0.9920000471174717, 0.0, 0.0, 0.0, 0.0, 0.0, 1.7398942587605858E9, 0.0, 2025-02-18 15:57:38.760
10.0, -289.16158477403224, -140.85772198112682, 10.881238921079785, 74.53246621694416, -0.01600000075995922, 0.0, 0.9920000471174717, 0.0, 0.0, 0.0, 0.0, 0.0, 1.739894258760617E9, 0.0, 2025-02-18 15:57:38.760
11.0, -447.338783449959, -311.35789101105183, 14.374305479694158, 44.70676407031715, -0.01600000075995922, 0.0, 0.9920000471174717, 0.0, 0.0, 0.0, 0.0, 0.0, 1.7398942587899702E9, 0.0, 2025-02-18 15:57:38.789
11.0, -421.90746375126764, -273.2408306626603, 10.428711026441306, 19.181946872733533, -0.01600000075995922, 0.0, 0.9920000471174717, 0.0, 0.0, 0.0, 0.0, 0.0, 1.7398942587900152E9, 0.0, 2025-02-18 15:57:38.790
12.0, -259.9080873206258, -110.68420913862064, 10.451150426175445, 62.89389755483717, -0.01600000075995922, 0.0, 0.9920000471174717, 0.0, 0.0, 0.0, 0.0, 0.0, 1.7398942587903025E9, 0.0, 2025-02-18 15:57:38.790
12.0, -285.6535586155951, -140.16584048932418, 10.754082322586328, 88.3401768533513, -0.01600000075995922, 0.0, 0.9920000471174717, 0.0, 0.0, 0.0, 0.0, 0.0, 1.739894258790332E9, 0.0, 2025-02-18 15:57:38.790
13.0, -450.3157438146882, -308.41832964587957, 16.393851455766708, 53.761061863042414, -0.01600000075995922, 0.0, 0.9920000471174717, 0.0, 0.0, 0.0, 0.0, 0.0, 1.739894258791101E9, 0.0, 2025-02-18 15:57:38.791
13.0, -430.3745972509496, -278.7235239977017, 14.621138876769692, 31.632073825225234, -0.01600000075995922, 0.0, 0.9920000471174717, 0.0, 0.0, 0.0, 0.0, 0.0, 1.7398942587911325E9, 0.0, 2025-02-18 15:57:38.791
14.0, -262.9374062847346, -110.17184284469113, 6.711250470485538, 75.36272400710732, -0.01600000075995922, 0.0, 0.9920000471174717, 0.0, 0.0, 0.0, 0.0, 0.0, 1.7398942587918468E9, 0.0, 2025-02-18 15:57:38.791
14.0, -295.05192720424384, -134.57842995552346, 19.670003816951066, 100.47241230960935, -0.01600000075995922, 0.0, 0.9920000471174717, 0.0, 0.0, 0.0, 0.0, 0.0, 1.7398942587918963E9, 0.0, 2025-02-18 15:57:38.791
15.0, -433.46375461434945, -306.53342006821185, 9.923824532423168, 58.944563201628625, -0.01600000075995922, 0.0, 0.9920000471174717, 0.0, 0.0, 0.0, 0.0, 0.0, 1.7398942588201575E9, 0.0, 2025-02-18 15:57:38.820
15.0, -425.49402780877426, -271.9879641775042, 14.733335875440389, 35.30091568175703, -0.01600000075995922, 0.0, 0.9920000471174717, 0.0, 0.0, 0.0, 0.0, 0.0, 1.7398942588202264E9, 0.0, 2025-02-18 15:57:38.820
16.0, -267.0961750354618, -108.60856466321275, 15.716929563786834, 65.2911734264344, -0.01600000075995922, 0.0, 0.9920000471174717, 0.0, 0.0, 0.0, 0.0, 0.0, 1.739894258820671E9, 0.0, 2025-02-18 15:57:38.820
16.0, -265.7161519518122, -124.71631377236918, 10.481069625820965, 89.17791444342583, -0.01600000075995922, 0.0, 0.9920000471174717, 0.0, 0.0, 0.0, 0.0, 0.0, 1.7398942588206975E9, 0.0, 2025-02-18 15:57:38.820
17.0, -445.76802546856925, -283.19270444475114, 9.714390134904534, 47.08160054218024, -0.01600000075995922, 0.0, 0.9920000471174717, 0.0, 0.0, 0.0, 0.0, 0.0, 1.739894258850443E9, 0.0, 2025-02-18 15:57:38.850
17.0, -426.0325734023936, -271.3895801845938, 13.944216984789819, 26.788903382606804, -0.01600000075995922, 0.0, 0.9920000471174717, 0.0, 0.0, 0.0, 0.0, 0.0, 1.7398942588504865E9, 0.0, 2025-02-18 15:57:38.850
18.0, -262.5783758889884, -109.53605985222384, 12.986802596133202, 48.71967672277242, -0.01600000075995922, 0.0, 0.9920000471174717, 0.0, 0.0, 0.0, 0.0, 0.0, 1.7398942588508213E9, 0.0, 2025-02-18 15:57:38.850
18.0, -260.36809501517564, -113.48539420543239, 13.824540186207741, 72.91308953613043, -0.01600000075995922, 0.0, 0.9920000471174717, 0.0, 0.0, 0.0, 0.0, 0.0, 1.739894258850861E9, 0.0, 2025-02-18 15:57:38.850
19.0, -431.13753684191033, -279.49020348861814, 10.410011526662856, 25.966125392355025, -0.01600000075995922, 0.0, 0.9920000471174717, 0.0, 0.0, 0.0, 0.0, 0.0, 1.7398942588510296E9, 0.0, 2025-02-18 15:57:38.851
19.0, -430.72988774674013, -269.1643397109583, 9.418938038405031, 4.43926124740392, -0.01600000075995922, 0.0, 0.9920000471174717, 0.0, 0.0, 0.0, 0.0, 0.0, 1.7398942588510575E9, 0.0, 2025-02-18 15:57:38.851
20.0, -272.88180026691407, -98.14432458719239, 11.509542113635689, 43.263162687420845, -0.01600000075995922, 0.0, 0.9920000471174717, 0.0, 0.0, 0.0, 0.0, 0.0, 1.739894258851832E9, 0.0, 2025-02-18 15:57:38.851
20.0, -254.900361279957, -111.09185823379084, 11.576860312838107, 59.333512797020376, -0.01600000075995922, 0.0, 0.9920000471174717, 0.0, 0.0, 0.0, 0.0, 0.0, 1.7398942588518727E9, 0.0, 2025-02-18 15:57:38.851
21.0, -414.8764518345706, -276.3898264253512, 7.956637155730277, 13.31404384225607, -0.01600000075995922, 0.0, 0.9920000471174717, 0.0, 0.0, 0.0, 0.0, 0.0, 1.7398942588800304E9, 0.0, 2025-02-18 15:57:38.880
21.0, -418.93798318644986, -273.37546706106514, 11.44596381438896, -7.943547505885363, -0.01600000075995922, 0.0, 0.9920000471174717, 0.0, 0.0, 0.0, 0.0, 0.0, 1.7398942588800707E9, 0.0, 2025-02-18 15:57:38.880
22.0, -255.6034624716267, -104.89858390716836, 11.775075010489672, 33.588041502051055, -0.01600000075995922, 0.0, 0.9920000471174717, 0.0, 0.0, 0.0, 0.0, 0.0, 1.7398942588805144E9, 0.0, 2025-02-18 15:57:38.880
22.0, -256.0447706663981, -108.06253926968202, 14.493982278276235, 61.91404376644641, -0.01600000075995922, 0.0, 0.9920000471174717, 0.0, 0.0, 0.0, 0.0, 0.0, 1.7398942588805404E9, 0.0, 2025-02-18 15:57:38.880
23.0, -415.23922213027254, -265.99664444848895, 12.156544805970043, 22.98916502762586, -0.01600000075995922, 0.0, 0.9920000471174717, 0.0, 0.0, 0.0, 0.0, 0.0, 1.7398942589098945E9, 0.0, 2025-02-18 15:57:38.909
23.0, -431.61624403623864, -271.71121158078313, 13.042901095468551, -7.479799911379814, -0.01600000075995922, 0.0, 0.9920000471174717, 0.0, 0.0, 0.0, 0.0, 0.0, 1.7398942589099321E9, 0.0, 2025-02-18 15:57:38.909
24.0, -261.9089337969199, -112.28862621961161, 12.66517119994387, 23.606248520314693, -0.01600000075995922, 0.0, 0.9920000471174717, 0.0, 0.0, 0.0, 0.0, 0.0, 1.7398942589103684E9, 0.0, 2025-02-18 15:57:38.910
24.0, -239.30871836468577, -103.22310872701928, 14.366825679782778, 46.41589835006744, -0.01600000075995922, 0.0, 0.9920000471174717, 0.0, 0.0, 0.0, 0.0, 0.0, 1.7398942589103963E9, 0.0, 2025-02-18 15:57:38.910
25.0, -411.71249647205696, -264.1715732701123, 9.534874937031418, 3.5940438574180007, -0.01600000075995922, 0.0, 0.9920000471174717, 0.0, 0.0, 0.0, 0.0, 0.0, 1.7398942589110036E9, 0.0, 2025-02-18 15:57:38.911
25.0, -424.53661342011765, -276.9096725191921, 9.015028843190521, -22.689973031170666, -0.01600000075995922, 0.0, 0.9920000471174717, 0.0, 0.0, 0.0, 0.0, 0.0, 1.73989425891103E9, 0.0, 2025-02-18 15:57:38.911
26.0, -266.33323544450104, -116.28283937228844, 5.477083485107869, 18.325509782880545, -0.01600000075995922, 0.0, 0.9920000471174717, 0.0, 0.0, 0.0, 0.0, 0.0, 1.739894258911878E9, 0.0, 2025-02-18 15:57:38.911
26.0, -252.7125198058784, -101.0689263525419, 7.986556355375797, 57.44860321935266, -0.01600000075995922, 0.0, 0.9920000471174717, 0.0, 0.0, 0.0, 0.0, 0.0, 1.7398942589119074E9, 0.0, 2025-02-18 15:57:38.911
27.0, -413.8068404472433, -272.6162673700601, 6.509295872878283, 20.17302036099136, -0.01600000075995922, 0.0, 0.9920000471174717, 0.0, 0.0, 0.0, 0.0, 0.0, 1.739894258939972E9, 0.0, 2025-02-18 15:57:38.939
27.0, -454.467032765504, -287.04854129906744, 13.386971891392022, 7.083370516076684, -0.01600000075995922, 0.0, 0.9920000471174717, 0.0, 0.0, 0.0, 0.0, 0.0, 1.7398942589400673E9, 0.0, 2025-02-18 15:57:38.940
28.0, -282.2502496559173, -123.80003828322515, 9.553574436809868, 42.043955301865935, -0.01600000075995922, 0.0, 0.9920000471174717, 0.0, 0.0, 0.0, 0.0, 0.0, 1.7398942589406593E9, 0.0, 2025-02-18 15:57:38.940
28.0, -221.1028853803873, -103.48864162387326, 16.457429755013436, 63.024794053286314, -0.01600000075995922, 0.0, 0.9920000471174717, 0.0, 0.0, 0.0, 0.0, 0.0, 1.739894258940694E9, 0.0, 2025-02-18 15:57:38.940
29.0, -422.82373924041167, -251.06696382537484, 11.44596381438896, 27.76127737108618, -0.01600000075995922, 0.0, 0.9920000471174717, 0.0, 0.0, 0.0, 0.0, 0.0, 1.7398942589701557E9, 0.0, 2025-02-18 15:57:38.970
29.0, -464.6395606449805, -273.9738510539755, 9.920084632467479, 7.775252007879317, -0.01600000075995922, 0.0, 0.9920000471174717, 0.0, 0.0, 0.0, 0.0, 0.0, 1.7398942589702048E9, 0.0, 2025-02-18 15:57:38.970
30.0, -255.5660634720698, -122.15822220267728, 7.590126960072666, 53.14023847039789, -0.01600000075995922, 0.0, 0.9920000471174717, 0.0, 0.0, 0.0, 0.0, 0.0, 1.7398942589708917E9, 0.0, 2025-02-18 15:57:38.970
30.0, -228.885617188178, -115.4787608818151, 17.16053094668314, 87.75675246026367, -0.01600000075995922, 0.0, 0.9920000471174717, 0.0, 0.0, 0.0, 0.0, 0.0, 1.739894258970947E9, 0.0, 2025-02-18 15:57:38.970
31.0, -402.762915878091, -277.41455901321024, 14.209749881643802, 53.66008456423879, -0.01600000075995922, 0.0, 0.9920000471174717, 0.0, 0.0, 0.0, 0.0, 0.0, 1.7398942589711914E9, 0.0, 2025-02-18 15:57:38.971
31.0, -481.33821394713596, -254.7171061821282, 12.930704096797854, 36.08255477249622, -0.01600000075995922, 0.0, 0.9920000471174717, 0.0, 0.0, 0.0, 0.0, 0.0, 1.7398942589712212E9, 0.0, 2025-02-18 15:57:38.971
32.0, -274.22816425096244, -120.75949961924925, 18.37599843228236, 56.03118113614619, -0.01600000075995922, 0.0, 0.9920000471174717, 0.0, 0.0, 0.0, 0.0, 0.0, 1.7398942589718978E9, 0.0, 2025-02-18 15:57:38.971
32.0, -230.83036516513675, -53.572196915280074, 14.849272774066776, 62.35535196121782, -0.01600000075995922, 0.0, 0.9920000471174717, 0.0, 0.0, 0.0, 0.0, 0.0, 1.7398942589719229E9, 0.0, 2025-02-18 15:57:38.971
33.0, -424.2486411235295, -266.5763289416209, 10.088380130473524, 20.48343205731362, -0.01600000075995922, 0.0, 0.9920000471174717, 0.0, 0.0, 0.0, 0.0, 0.0, 1.7398942589999936E9, 0.0, 2025-02-18 15:57:38.999
33.0, -449.47426632465795, -288.82499377802014, 15.372858767863363, 3.1976144621148705, -0.01600000075995922, 0.0, 0.9920000471174717, 0.0, 0.0, 0.0, 0.0, 0.0, 1.7398942590000465E9, 0.0, 2025-02-18 15:57:39.000
34.0, -237.86137708183378, -151.939045549836, 13.981615984346718, 37.13346666004509, -0.01600000075995922, 0.0, 0.9920000471174717, 0.0, 0.0, 0.0, 0.0, 0.0, 1.7398942590005398E9, 0.0, 2025-02-18 15:57:39.000
34.0, -183.84974192176014, -110.48599444096908, 11.131812218111008, 65.16401682794094, -0.01600000075995922, 0.0, 0.9920000471174717, 0.0, 0.0, 0.0, 0.0, 0.0, 1.7398942590005648E9, 0.0, 2025-02-18 15:57:39.000
35.0, -4.592597145587206, -223.33934555388987, 11.722716411110014, 28.59153516124934, -0.01600000075995922, 0.0, 0.9920000471174717, 0.0, 0.0, 0.0, 0.0, 0.0, 1.739894259030764E9, 0.0, 2025-02-18 15:57:39.030
35.0, -96.08550966158509, -232.7077949428931, 14.482762578409165, 1.4436013828963041, -0.01600000075995922, 0.0, 0.9920000471174717, 0.0, 0.0, 0.0, 0.0, 0.0, 1.7398942590308251E9, 0.0, 2025-02-18 15:57:39.030
36.0, 67.40982675133273, 2.5898807193152606, 10.032281631138176, 35.40189298056066, -0.01600000075995922, 0.0, 0.9920000471174717, 0.0, 0.0, 0.0, 0.0, 0.0, 1.7398942590312195E9, 0.0, 2025-02-18 15:57:39.031
36.0, 290.4873793083243, -9.374059238936752, 14.101292782928795, 41.97663710266352, -0.01600000075995922, 0.0, 0.9920000471174717, 0.0, 0.0, 0.0, 0.0, 0.0, 1.7398942590312552E9, 0.0, 2025-02-18 15:57:39.031
37.0, 482.2170904367231, -190.10285464767367, 11.580600212793797, 15.576683315448463, -0.01600000075995922, 0.0, 0.9920000471174717, 0.0, 0.0, 0.0, 0.0, 0.0, 1.739894259031366E9, 0.0, 2025-02-18 15:57:39.031
37.0, 547.5793219623156, -203.3981989901513, 15.795467462856323, 10.557737574912608, -0.01600000075995922, 0.0, 0.9920000471174717, 0.0, 0.0, 0.0, 0.0, 0.0, 1.7398942590313945E9, 0.0, 2025-02-18 15:57:39.031
38.0, 792.3726036120206, -177.02255455264822, 16.176937258336693, 56.42387063149363, -0.01600000075995922, 0.0, 0.9920000471174717, 0.0, 0.0, 0.0, 0.0, 0.0, 1.739894259031982E9, 0.0, 2025-02-18 15:57:39.031
38.0, 878.7755122883245, -166.1693648812361, 1.7596229291521013, 53.88821846153587, -0.01600000075995922, 0.0, 0.9920000471174717, 0.0, 0.0, 0.0, 0.0, 0.0, 1.7398942590320404E9, 0.0, 2025-02-18 15:57:39.032
39.0, 1014.6535574784502, -154.26526332227513, 4.299014999065548, 31.35158132854849, -0.01600000075995922, 0.0, 0.9920000471174717, 0.0, 0.0, 0.0, 0.0, 0.0, 1.7398942590600917E9, 0.0, 2025-02-18 15:57:39.060
39.0, 980.93461947795, -265.42256980529055, 15.313020368572325, -7.277845313772559, -0.01600000075995922, 0.0, 0.9920000471174717, 0.0, 0.0, 0.0, 0.0, 0.0, 1.7398942590601308E9, 0.0, 2025-02-18 15:57:39.060
40.0, 1225.2791131329723, -69.08717188145965, 16.610765653196722, 6.784178519621491, -0.01600000075995922, 0.0, 0.9920000471174717, 0.0, 0.0, 0.0, 0.0, 0.0, 1.7398942590605607E9, 0.0, 2025-02-18 15:57:39.060
40.0, 1432.761282874737, -155.60601745638996, 13.45055019063875, 7.599476709961891, -0.01600000075995922, 0.0, 0.9920000471174717, 0.0, 0.0, 0.0, 0.0, 0.0, 1.7398942590605893E9, 0.0, 2025-02-18 15:57:39.060
41.0, 1499.8962269793265, -190.67318939091638, 9.86772603308782, -0.7405001912266016, -0.01600000075995922, 0.0, 0.9920000471174717, 0.0, 0.0, 0.0, 0.0, 0.0, 1.739894259090247E9, 0.0, 2025-02-18 15:57:39.090
41.0, 1575.8199359797873, -320.5038163526915, 12.459476702380925, -6.959953817538917, -0.01600000075995922, 0.0, 0.9920000471174717, 0.0, 0.0, 0.0, 0.0, 0.0, 1.7398942590904288E9, 0.0, 2025-02-18 15:57:39.090
42.0, 1747.2849991982803, -167.1884876191616, 8.356806450989097, -7.3863024124875665, -0.01600000075995922, 0.0, 0.9920000471174717, 0.0, 0.0, 0.0, 0.0, 0.0, 1.7398942590905168E9, 0.0, 2025-02-18 15:57:39.090
42.0, 1812.9165035206825, -122.23115025181323, 8.921531344298273, 21.32490954734385, -0.01600000075995922, 0.0, 0.9920000471174717, 0.0, 0.0, 0.0, 0.0, 0.0, 1.7398942590905547E9, 0.0, 2025-02-18 15:57:39.090
43.0, 1636.716726958286, -258.26814119005576, 11.655398211907595, -32.357614416629076, -0.01600000075995922, 0.0, 0.9920000471174717, 0.0, 0.0, 0.0, 0.0, 0.0, 1.739894259091254E9, 0.0, 2025-02-18 15:57:39.091
43.0, 1525.7538952729665, -359.14072279492393, 16.65938435262069, -39.84489412792027, -0.01600000075995922, 0.0, 0.9920000471174717, 0.0, 0.0, 0.0, 0.0, 0.0, 1.739894259091358E9, 0.0, 2025-02-18 15:57:39.091
44.0, 1644.0450609214604, -586.2012688047253, 13.203716793563217, 22.454359333962202, -0.01600000075995922, 0.0, 0.9920000471174717, 0.0, 0.0, 0.0, 0.0, 0.0, 1.7398942590923564E9, 0.0, 2025-02-18 15:57:39.092
44.0, 1748.6014439826831, -594.8740968019702, 13.813320486340672, 33.78251629974693, -0.01600000075995922, 0.0, 0.9920000471174717, 0.0, 0.0, 0.0, 0.0, 0.0, 1.739894259092382E9, 0.0, 2025-02-18 15:57:39.092
45.0, 1686.7491085655056, -817.9422996090725, 12.915744496975094, 9.338530189357698, -0.01600000075995922, 0.0, 0.9920000471174717, 0.0, 0.0, 0.0, 0.0, 0.0, 1.7398942591199863E9, 0.0, 2025-02-18 15:57:39.119
45.0, 1531.4834220050834, -842.6592984162271, 17.287687545176595, 25.577175796963274, -0.01600000075995922, 0.0, 0.9920000471174717, 0.0, 0.0, 0.0, 0.0, 0.0, 1.7398942591200244E9, 0.0, 2025-02-18 15:57:39.120
46.0, 1724.6548645664006, -730.1088791997172, 9.280561740044504, 68.43268938921392, -0.01600000075995922, 0.0, 0.9920000471174717, 0.0, 0.0, 0.0, 0.0, 0.0, 1.7398942591206844E9, 0.0, 2025-02-18 15:57:39.120
46.0, 1775.3566882656887, -623.2337581659667, 8.068834154400975, 94.4511733809486, -0.01600000075995922, 0.0, 0.9920000471174717, 0.0, 0.0, 0.0, 0.0, 0.0, 1.7398942591207128E9, 0.0, 2025-02-18 15:57:39.120
47.0, 1584.578781676013, -769.2525420859456, 14.149911482352763, 52.878445473499596, -0.01600000075995922, 0.0, 0.9920000471174717, 0.0, 0.0, 0.0, 0.0, 0.0, 1.7398942591507792E9, 0.0, 2025-02-18 15:57:39.150
47.0, 1516.0787740875967, -833.7508567217737, 12.67639089981094, 30.93271253351122, -0.01600000075995922, 0.0, 0.9920000471174717, 0.0, 0.0, 0.0, 0.0, 0.0, 1.7398942591508253E9, 0.0, 2025-02-18 15:57:39.150
48.0, 1665.6280235657468, -654.1402913997881, 7.511589061003178, 79.38311645947397, -0.01600000075995922, 0.0, 0.9920000471174717, 0.0, 0.0, 0.0, 0.0, 0.0, 1.7398942591529164E9, 0.0, 2025-02-18 15:57:39.152
48.0, 1783.446091869846, -588.5536658768542, 19.019261224661022, 82.16560202650726, -0.01600000075995922, 0.0, 0.9920000471174717, 0.0, 0.0, 0.0, 0.0, 0.0, 1.7398942591530252E9, 0.0, 2025-02-18 15:57:39.153
49.0, 1610.7842606655322, -739.3071631407365, 9.774228534195572, 32.11078101955354, -0.01600000075995922, 0.0, 0.9920000471174717, 0.0, 0.0, 0.0, 0.0, 0.0, 1.7398942591530902E9, 0.0, 2025-02-18 15:57:39.153
49.0, 1521.7821215200238, -821.6784596648067, 14.557560577522963, 6.481246623210609, -0.01600000075995922, 0.0, 0.9920000471174717, 0.0, 0.0, 0.0, 0.0, 0.0, 1.7398942591531205E9, 0.0, 2025-02-18 15:57:39.153
50.0, 1697.1591200921685, -645.6469786004163, 16.24425545753911, 29.975298144854605, -0.01600000075995922, 0.0, 0.9920000471174717, 0.0, 0.0, 0.0, 0.0, 0.0, 1.7398942591532612E9, 0.0, 2025-02-18 15:57:39.153
50.0, 1787.631039920263, -557.1123269493692, 8.68591764708981, 38.56958824303001, -0.01600000075995922, 0.0, 0.9920000471174717, 0.0, 0.0, 0.0, 0.0, 0.0, 1.7398942591532907E9, 0.0, 2025-02-18 15:57:39.153
51.0, 1616.9588354923762, -722.6870477376506, 13.416891091037542, -11.728326261043549, -0.01600000075995922, 0.0, 0.9920000471174717, 0.0, 0.0, 0.0, 0.0, 0.0, 1.7398942591803346E9, 0.0, 2025-02-18 15:57:39.180
51.0, 1517.7467694678344, -819.7561510875821, 12.71004999941215, -12.719399749301374, -0.01600000075995922, 0.0, 0.9920000471174717, 0.0, 0.0, 0.0, 0.0, 0.0, 1.7398942591803784E9, 0.0, 2025-02-18 15:57:39.180
52.0, 1693.3332024374977, -649.0390678602271, 11.06449401890859, 34.67261248920113, -0.01600000075995922, 0.0, 0.9920000471174717, 0.0, 0.0, 0.0, 0.0, 0.0, 1.7398942591806564E9, 0.0, 2025-02-18 15:57:39.180
52.0, 1790.4471845868975, -559.6068402198143, 5.806194681208581, 46.00076945498586, -0.01600000075995922, 0.0, 0.9920000471174717, 0.0, 0.0, 0.0, 0.0, 0.0, 1.73989425918069E9, 0.0, 2025-02-18 15:57:39.180
53.0, 1619.9844145565294, -727.9565667752177, 6.464417073410004, -4.603816845454276, -0.01600000075995922, 0.0, 0.9920000471174717, 0.0, 0.0, 0.0, 0.0, 0.0, 1.739894259209954E9, 0.0, 2025-02-18 15:57:39.209
53.0, 1519.826153843198, -823.5334500428289, 14.31072718044743, -17.28955749515444, -0.01600000075995922, 0.0, 0.9920000471174717, 0.0, 0.0, 0.0, 0.0, 0.0, 1.739894259210092E9, 0.0, 2025-02-18 15:57:39.210
54.0, 1695.2442913148552, -647.5580674777739, 6.2175836763344705, 8.04826470464468, -0.01600000075995922, 0.0, 0.9920000471174717, 0.0, 0.0, 0.0, 0.0, 0.0, 1.7398942592103293E9, 0.0, 2025-02-18 15:57:39.210
54.0, 1799.8044142760336, -555.2386370715685, 9.777968434151262, 22.697452831082046, -0.01600000075995922, 0.0, 0.9920000471174717, 0.0, 0.0, 0.0, 0.0, 0.0, 1.739894259210387E9, 0.0, 2025-02-18 15:57:39.210
55.0, 1631.409808921162, -721.1948276553303, 12.751188898924738, -16.47799920476973, -0.01600000075995922, 0.0, 0.9920000471174717, 0.0, 0.0, 0.0, 0.0, 0.0, 1.7398942592110379E9, 0.0, 2025-02-18 15:57:39.211
55.0, 1511.8003285382874, -827.680999093689, 12.807287398260087, -35.6823854772374, -0.01600000075995922, 0.0, 0.9920000471174717, 0.0, 0.0, 0.0, 0.0, 0.0, 1.739894259211068E9, 0.0, 2025-02-18 15:57:39.211
56.0, 1695.416326712817, -640.0333887669258, 13.959176584612578, -3.3958291597664356, -0.01600000075995922, 0.0, 0.9920000471174717, 0.0, 0.0, 0.0, 0.0, 0.0, 1.7398942592119017E9, 0.0, 2025-02-18 15:57:39.211
56.0, 1806.3679386982694, -537.9939583758824, 12.998022296000272, -11.421654464676976, -0.01600000075995922, 0.0, 0.9920000471174717, 0.0, 0.0, 0.0, 0.0, 0.0, 1.7398942592119396E9, 0.0, 2025-02-18 15:57:39.211
57.0, 1634.4279081854038, -703.4527422655374, 6.090427077841014, -68.89643698371947, -0.01600000075995922, 0.0, 0.9920000471174717, 0.0, 0.0, 0.0, 0.0, 0.0, 1.7398942592399604E9, 0.0, 2025-02-18 15:57:39.239
57.0, 1524.5982661866583, -807.7548121297732, 16.73418235173449, -77.01575978752226, -0.01600000075995922, 0.0, 0.9920000471174717, 0.0, 0.0, 0.0, 0.0, 0.0, 1.7398942592400434E9, 0.0, 2025-02-18 15:57:39.240
58.0, 1704.739897302352, -626.1022614319809, 14.097552882973105, -42.97145049087703, -0.01600000075995922, 0.0, 0.9920000471174717, 0.0, 0.0, 0.0, 0.0, 0.0, 1.739894259240628E9, 0.0, 2025-02-18 15:57:39.240
58.0, 1812.2321018287912, -525.8018845203333, 11.977029608096927, -37.80664865206927, -0.01600000075995922, 0.0, 0.9920000471174717, 0.0, 0.0, 0.0, 0.0, 0.0, 1.7398942592406569E9, 0.0, 2025-02-18 15:57:39.240
59.0, 1644.9258073610254, -696.6685637459159, 15.784247762989253, -85.1874411907047, -0.01600000075995922, 0.0, 0.9920000471174717, 0.0, 0.0, 0.0, 0.0, 0.0, 1.7398942592700853E9, 0.0, 2025-02-18 15:57:39.270
59.0, 1523.8241068958305, -804.392642069608, 14.29576758062467, -89.39108874090016, -0.01600000075995922, 0.0, 0.9920000471174717, 0.0, 0.0, 0.0, 0.0, 0.0, 1.7398942592701378E9, 0.0, 2025-02-18 15:57:39.270
60.0, 1697.79116318468, -629.7337042889558, 9.815367433708161, -42.3169679986313, -0.01600000075995922, 0.0, 0.9920000471174717, 0.0, 0.0, 0.0, 0.0, 0.0, 1.7398942592702632E9, 0.0, 2025-02-18 15:57:39.270
60.0, 1817.0004742722958, -518.6736352047883, 11.778814910445362, -40.813528216443956, -0.01600000075995922, 0.0, 0.9920000471174717, 0.0, 0.0, 0.0, 0.0, 0.0, 1.7398942592702892E9, 0.0, 2025-02-18 15:57:39.270
61.0, 1641.3878620029427, -689.1364052351564, 17.328826444689184, -84.34222380071878, -0.01600000075995922, -0.01600000075995922, 0.9920000471174717, 0.0, 0.0, 0.0, 0.0, 0.0, 1.7398942592711005E9, 0.0, 2025-02-18 15:57:39.271
61.0, 1514.855826802086, -805.0882634613663, 10.563347424846143, -96.42584055755287, -0.01600000075995922, -0.01600000075995922, 0.9920000471174717, 0.0, 0.0, 0.0, 0.0, 0.0, 1.7398942592711315E9, 0.0, 2025-02-18 15:57:39.271
62.0, 1690.6703936690465, -632.5760282552801, 6.797268169466406, -43.75308958161622, -0.01600000075995922, -0.01600000075995922, 0.9920000471174717, 0.0, 0.0, 0.0, 0.0, 0.0, 1.7398942592719069E9, 0.0, 2025-02-18 15:57:39.271
62.0, 1813.320412715897, -517.5965440175496, 10.110819530207664, -34.32106189336628, -0.01600000075995922, -0.01600000075995922, 0.9920000471174717, 0.0, 0.0, 0.0, 0.0, 0.0, 1.739894259271932E9, 0.0, 2025-02-18 15:57:39.271
63.0, 1632.1241298126988, -689.659991228953, 17.758914939593524, -71.19273555651307, -0.01600000075995922, -0.01600000075995922, 0.9920000471174717, 0.0, 0.0, 0.0, 0.0, 0.0, 1.7398942592999384E9, 0.0, 2025-02-18 15:57:39.299
63.0, 1496.3283624215983, -807.8146505290642, 15.021308172028512, -68.29805299080908, -0.01600000075995922, -0.01600000075995922, 0.9920000471174717, 0.0, 0.0, 0.0, 0.0, 0.0, 1.7398942592999775E9, 0.0, 2025-02-18 15:57:39.299
64.0, 1680.3258303916082, -626.124700831715, 10.196837229188532, -32.769003411754966, -0.01600000075995922, -0.01600000075995922, 0.9920000471174717, 0.0, 0.0, 0.0, 0.0, 0.0, 1.7398942593005192E9, 0.0, 2025-02-18 15:57:39.300
64.0, 1813.0735793188214, -518.6324963052757, 11.617999212350696, -21.523124244995415, -0.01600000075995922, -0.01600000075995922, 0.9920000471174717, 0.0, 0.0, 0.0, 0.0, 0.0, 1.7398942593005488E9, 0.0, 2025-02-18 15:57:39.300
65.0, 1632.3186046103947, -696.7059627454728, 6.718730270396918, -51.259068792685866, -0.01600000075995922, -0.01600000075995922, 0.9920000471174717, 0.0, 0.0, 0.0, 0.0, 0.0, 1.739894259330214E9, 0.0, 2025-02-18 15:57:39.330
65.0, 1483.6127025722526, -825.1677863234654, 11.262708716560155, -37.36908035725355, -0.01600000075995922, -0.01600000075995922, 0.9920000471174717, 0.0, 0.0, 0.0, 0.0, 0.0, 1.739894259330387E9, 0.0, 2025-02-18 15:57:39.330
66.0, 1656.3418519757688, -648.0966130713932, 12.990542496088892, 20.88734125252813, -0.01600000075995922, -0.01600000075995922, 0.9920000471174717, 0.0, 0.0, 0.0, 0.0, 0.0, 1.7398942593304493E9, 0.0, 2025-02-18 15:57:39.330
66.0, 1788.5622750092298, -527.1856475039385, 13.158837994094938, 29.82570214662701, -0.01600000075995922, -0.01600000075995922, 0.9920000471174717, 0.0, 0.0, 0.0, 0.0, 0.0, 1.739894259330474E9, 0.0, 2025-02-18 15:57:39.330
67.0, 1605.600759326946, -703.1011916697025, 8.457783749792725, -9.62650248594582, -0.01600000075995922, -0.01600000075995922, 0.9920000471174717, 0.0, 0.0, 0.0, 0.0, 0.0, 1.739894259331078E9, 0.0, 2025-02-18 15:57:39.331
67.0, 1467.2842993657105, -835.6544657992199, 18.480715631041676, -7.924848006106913, -0.01600000075995922, -0.01600000075995922, 0.9920000471174717, 0.0, 0.0, 0.0, 0.0, 0.0, 1.7398942593312523E9, 0.0, 2025-02-18 15:57:39.331
68.0, 1644.7706015128642, -659.3911109375767, 10.802701022010297, 40.28620232269168, -0.01600000075995922, -0.01600000075995922, 0.9920000471174717, 0.0, 0.0, 0.0, 0.0, 0.0, 1.7398942593319943E9, 0.0, 2025-02-18 15:57:39.331
68.0, 1783.6854454670101, -523.8533966434188, 11.221569817047566, 49.17594451736659, -0.01600000075995922, -0.01600000075995922, 0.9920000471174717, 0.0, 0.0, 0.0, 0.0, 0.0, 1.7398942593320277E9, 0.0, 2025-02-18 15:57:39.332
69.0, 1620.9680082448758, -705.4797680415213, 12.990542496088892, 5.202200838364661, -0.01600000075995922, -0.01600000075995922, 0.9920000471174717, 0.0, 0.0, 0.0, 0.0, 0.0, 1.7398942593598604E9, 0.0, 2025-02-18 15:57:39.359
69.0, 1467.1421831673943, -838.5977670643479, 11.113112718332559, 1.4286417830735445, -0.01600000075995922, -0.01600000075995922, 0.9920000471174717, 0.0, 0.0, 0.0, 0.0, 0.0, 1.739894259359903E9, 0.0, 2025-02-18 15:57:39.359
70.0, 1640.6641913615167, -660.3335657264106, 16.3227933566086, 56.588426229543984, -0.01600000075995922, -0.01600000075995922, 0.9920000471174717, 0.0, 0.0, 0.0, 0.0, 0.0, 1.7398942593605645E9, 0.0, 2025-02-18 15:57:39.360
70.0, 1784.1155339619145, -523.4120884486474, 12.220123105216771, 66.73851470928639, -0.01600000075995922, -0.01600000075995922, 0.9920000471174717, 0.0, 0.0, 0.0, 0.0, 0.0, 1.739894259360603E9, 0.0, 2025-02-18 15:57:39.360
71.0, 1603.6896704495884, -698.1196449287236, 18.551773730199784, 30.293189641088247, -0.01600000075995922, 0.0, 0.9920000471174717, 0.0, 0.0, 0.0, 0.0, 0.0, 1.739894259389891E9, 0.0, 2025-02-18 15:57:39.389
71.0, 1442.0923332641833, -835.9573976956308, 7.724763358477503, 34.006910297088325, -0.01600000075995922, 0.0, 0.9920000471174717, 0.0, 0.0, 0.0, 0.0, 0.0, 1.739894259389945E9, 0.0, 2025-02-18 15:57:39.389
72.0, 1635.0244222283363, -666.5081405532546, 9.86024623317644, 92.52886480372399, -0.01600000075995922, 0.0, 0.9920000471174717, 0.0, 0.0, 0.0, 0.0, 0.0, 1.739894259390299E9, 0.0, 2025-02-18 15:57:39.390
72.0, 1782.8589275768027, -531.5949895516969, 9.759268934372813, 103.49799137376249, -0.01600000075995922, 0.0, 0.9920000471174717, 0.0, 0.0, 0.0, 0.0, 0.0, 1.7398942593903267E9, 0.0, 2025-02-18 15:57:39.390
73.0, 1592.1932179857977, -707.5067938175052, 5.918391679879278, 57.91235081385821, -0.01600000075995922, 0.0, 0.9920000471174717, 0.0, 0.0, 0.0, 0.0, 0.0, 1.7398942593909292E9, 0.0, 2025-02-18 15:57:39.390
73.0, 1431.493456789758, -863.6289174677804, 4.011042702477425, 51.82753358595073, -0.01600000075995922, 0.0, 0.9920000471174717, 0.0, 0.0, 0.0, 0.0, 0.0, 1.7398942593909495E9, 0.0, 2025-02-18 15:57:39.390
74.0, 1618.120074428618, -665.9508954598568, 5.151712188962847, 91.23485941905528, -0.01600000075995922, 0.0, 0.9920000471174717, 0.0, 0.0, 0.0, 0.0, 0.0, 1.7398942593917785E9, 0.0, 2025-02-18 15:57:39.391
74.0, 1784.3848067587242, -528.9396605831571, 6.576614072080702, 79.34571745991707, -0.01600000075995922, 0.0, 0.9920000471174717, 0.0, 0.0, 0.0, 0.0, 0.0, 1.739894259391808E9, 0.0, 2025-02-18 15:57:39.391
75.0, 1596.2098705382086, -705.7677403381094, 15.716929563786834, 30.723278135992587, -0.01600000075995922, 0.0, 0.9920000471174717, 0.0, 0.0, 0.0, 0.0, 0.0, 1.7398942594199224E9, 0.0, 2025-02-18 15:57:39.419
75.0, 1450.297673766967, -856.9232768472284, 18.67145052878186, 19.847649064846337, -0.01600000075995922, 0.0, 0.9920000471174717, 0.0, 0.0, 0.0, 0.0, 0.0, 1.7398942594199588E9, 0.0, 2025-02-18 15:57:39.419
76.0, 1637.2870617015287, -661.0927654174156, 11.924671008717269, 61.1398844756186, -0.01600000075995922, 0.0, 0.9920000471174717, 0.0, 0.0, 0.0, 0.0, 0.0, 1.739894259420853E9, 0.0, 2025-02-18 15:57:39.420
76.0, 1788.124706714414, -513.6172904646955, 5.555621384177357, 51.62931888829917, -0.01600000075995922, 0.0, 0.9920000471174717, 0.0, 0.0, 0.0, 0.0, 0.0, 1.7398942594209876E9, 0.0, 2025-02-18 15:57:39.420
77.0, 1607.6913634021766, -688.5754202418029, 13.663724488113075, 2.3860561717301607, -0.01600000075995922, 0.0, 0.9920000471174717, 0.0, 0.0, 0.0, 0.0, 0.0, 1.7398942594503095E9, 0.0, 2025-02-18 15:57:39.450
77.0, 1447.3207134022377, -847.7081633564085, 11.251489016693085, 5.819284331053495, -0.01600000075995922, 0.0, 0.9920000471174717, 0.0, 0.0, 0.0, 0.0, 0.0, 1.7398942594503536E9, 0.0, 2025-02-18 15:57:39.450
78.0, 1642.8370732357726, -652.247902022209, 19.16511732293293, 39.56814153119922, -0.01600000075995922, 0.0, 0.9920000471174717, 0.0, 0.0, 0.0, 0.0, 0.0, 1.7398942594506035E9, 0.0, 2025-02-18 15:57:39.450
78.0, 1804.1875770241022, -492.5205148146488, 12.197683705482632, 33.44218540377915, -0.01600000075995922, 0.0, 0.9920000471174717, 0.0, 0.0, 0.0, 0.0, 0.0, 1.7398942594506357E9, 0.0, 2025-02-18 15:57:39.450
79.0, 1628.9414749504067, -669.6141274664551, 15.642131564673036, -28.344701764173806, -0.01600000075995922, 0.0, 0.9920000471174717, 0.0, 0.0, 0.0, 0.0, 0.0, 1.7398942594509528E9, 0.0, 2025-02-18 15:57:39.450
79.0, 1462.8076391187496, -838.1340194698423, 9.89390533277765, -38.083401248790324, -0.01600000075995922, 0.0, 0.9920000471174717, 0.0, 0.0, 0.0, 0.0, 0.0, 1.739894259450987E9, 0.0, 2025-02-18 15:57:39.450
80.0, 1652.6094318199903, -649.3046007570811, 13.319653692189604, 3.6426625568419695, -0.01600000075995922, 0.0, 0.9920000471174717, 0.0, 0.0, 0.0, 0.0, 0.0, 1.7398942594518344E9, 0.0, 2025-02-18 15:57:39.451
80.0, 1819.5735254418105, -490.4037314397283, 9.112266242038459, 1.0546517875045538, -0.01600000075995922, 0.0, 0.9920000471174717, 0.0, 0.0, 0.0, 0.0, 0.0, 1.7398942594519532E9, 0.0, 2025-02-18 15:57:39.451
81.0, 1624.7378274002112, -670.8445545518771, 4.673004994634539, -54.45668325480074, -0.01600000075995922, 0.0, 0.9920000471174717, 0.0, 0.0, 0.0, 0.0, 0.0, 1.739894259479936E9, 0.0, 2025-02-18 15:57:39.479
81.0, 1462.2092551258393, -844.1963972980157, 14.191050381865352, -53.90691796131432, -0.01600000075995922, 0.0, 0.9920000471174717, 0.0, 0.0, 0.0, 0.0, 0.0, 1.7398942594799871E9, 0.0, 2025-02-18 15:57:39.479
82.0, 1658.6381505485624, -645.9873094963841, 15.960023060906678, -22.398260834626853, 0.0, 0.0, 0.9920000471174717, 0.0, 0.0, 0.0, 0.0, 0.0, 1.7398942594811025E9, 0.0, 2025-02-18 15:57:39.481
82.0, 1829.6301164226606, -486.3608995876275, 7.762162358034402, -30.390427039936185, 0.0, 0.0, 0.9920000471174717, 0.0, 0.0, 0.0, 0.0, 0.0, 1.73989425948114E9, 0.0, 2025-02-18 15:57:39.481
