%OpenBCI Raw EXG Data
%Number of channels = 4
%Sample Rate = 200 Hz
%Board = OpenBCI_GUI$BoardGanglionNative
Sample Index, EXG Channel 0, EXG Channel 1, EXG Channel 2, EXG Channel 3, Accel Channel 0, Accel Channel 1, Accel Channel 2, Other, Other, Other, Other, Other, Timestamp, Marker Channel, Timestamp (Formatted)
0.0, 340.6319579142146, 171.26123867090791, 10.926117720548064, 205.8571832110174, 0.0, 0.0, 0.0, 0.0, 0.0, 0.0, 0.0, 0.0, 1.7404839198953795E9, 0.0, 2025-02-25 11:45:19.895
1.0, 152.88524023862556, -12.379068853333592, 13.783401286695153, -16.558407053817064, 0.0, -0.01600000075995922, 0.0, 0.0, 0.0, 0.0, 0.0, 0.0, 1.7404839199229112E9, 0.0, 2025-02-25 11:45:19.922
1.0, 343.36395483184606, -205.3541666669771, 14.119992282707244, 174.09234293736517, 0.0, -0.01600000075995922, 0.0, 0.0, 0.0, 0.0, 0.0, 0.0, 1.7404839199229643E9, 0.0, 2025-02-25 11:45:19.922
2.0, 555.2068479219452, -16.87816850002855, 11.47588301403448, 415.99281197134405, -0.01600000075995922, -0.01600000075995922, 0.0, 0.0, 0.0, 0.0, 0.0, 0.0, 1.7404839199232955E9, 0.0, 2025-02-25 11:45:19.923
2.0, 338.27208104217425, 162.87264307029545, 16.117098859045655, 209.7840781644918, -0.01600000075995922, -0.01600000075995922, 0.0, 0.0, 0.0, 0.0, 0.0, 0.0, 1.7404839199233377E9, 0.0, 2025-02-25 11:45:19.923
3.0, 132.98149267444387, -33.71145820058882, 14.939030373003334, -30.310019190888852, -0.01600000075995922, -0.01600000075995922, 0.0, 0.0, 0.0, 0.0, 0.0, 0.0, 1.7404839199239676E9, 0.0, 2025-02-25 11:45:19.923
3.0, 326.94579402636737, -218.89260450657457, 12.919484396930784, 176.10814901348203, -0.01600000075995922, -0.01600000075995922, 0.0, 0.0, 0.0, 0.0, 0.0, 0.0, 1.7404839199240065E9, 0.0, 2025-02-25 11:45:19.924
4.0, 523.3578598992899, -36.864193863235414, 11.285148116294295, 413.6030158996582, -0.01600000075995922, -0.01600000075995922, 0.0, 0.0, 0.0, 0.0, 0.0, 0.0, 1.7404839199246964E9, 0.0, 2025-02-25 11:45:19.924
4.0, 312.92677904246375, 137.02245457656682, 10.776521722320467, 201.94524785736576, -0.01600000075995922, -0.01600000075995922, 0.0, 0.0, 0.0, 0.0, 0.0, 0.0, 1.7404839199247365E9, 0.0, 2025-02-25 11:45:19.924
5.0, 174.07177348760888, -5.587410533800721, 11.651658311951905, 19.344632520806044, -0.01600000075995922, -0.01600000075995922, 0.0, 0.0, 0.0, 0.0, 0.0, 0.0, 1.740483919925239E9, 0.0, 2025-02-25 11:45:19.925
5.0, 370.94197710510343, -198.37925324961543, 15.406517867464572, 226.67533631436527, -0.01600000075995922, -0.01600000075995922, 0.0, 0.0, 0.0, 0.0, 0.0, 0.0, 1.740483919925286E9, 0.0, 2025-02-25 11:45:19.925
6.0, 521.8319807173684, -41.91679870337248, 13.001762195955962, 423.3192759845406, -0.01600000075995922, -0.01600000075995922, 0.0, 0.0, 0.0, 0.0, 0.0, 0.0, 1.7404839199528916E9, 0.0, 2025-02-25 11:45:19.952
6.0, 339.3977909288369, 154.37559037096798, 11.913451308850199, 232.85552099114284, -0.01600000075995922, -0.01600000075995922, 0.0, 0.0, 0.0, 0.0, 0.0, 0.0, 1.7404839199529452E9, 0.0, 2025-02-25 11:45:19.952
7.0, 158.7643629689701, -21.852235441096127, 10.626925724092871, 24.77870715642348, -0.01600000075995922, -0.01600000075995922, 0.0, 0.0, 0.0, 0.0, 0.0, 0.0, 1.7404839199534955E9, 0.0, 2025-02-25 11:45:19.953
7.0, 358.2150975558907, -207.33257374353707, 11.43474411452189, 230.35913777071983, -0.01600000075995922, -0.01600000075995922, 0.0, 0.0, 0.0, 0.0, 0.0, 0.0, 1.7404839199535382E9, 0.0, 2025-02-25 11:45:19.953
8.0, 557.0693180998787, -21.235151948407292, 15.615952264983207, 457.3710650810972, -0.01600000075995922, -0.01600000075995922, 0.0, 0.0, 0.0, 0.0, 0.0, 0.0, 1.7404839199832067E9, 0.0, 2025-02-25 11:45:19.983
8.0, 363.61738304188475, 163.9310347577557, 12.594113100785762, 248.37236590730026, -0.01600000075995922, -0.01600000075995922, 0.0, 0.0, 0.0, 0.0, 0.0, 0.0, 1.740483919983276E9, 0.0, 2025-02-25 11:45:19.983
9.0, 162.44816442532465, -23.430473222397268, 13.207456693518907, 29.21422850387171, -0.01600000075995922, -0.01600000075995922, 0.0, 0.0, 0.0, 0.0, 0.0, 0.0, 1.7404839199839108E9, 0.0, 2025-02-25 11:45:19.983
9.0, 348.4202995719388, -212.6581912804395, 14.950250072870404, 221.22630207892507, -0.01600000075995922, -0.01600000075995922, 0.0, 0.0, 0.0, 0.0, 0.0, 0.0, 1.74048391998396E9, 0.0, 2025-02-25 11:45:19.983
10.0, 539.0766594130546, -30.60360133741051, 14.168610982131213, 450.0707803675905, -0.01600000075995922, -0.01600000075995922, 0.49600002355873585, 0.0, 0.0, 0.0, 0.0, 0.0, 1.7404839199848256E9, 0.0, 2025-02-25 11:45:19.984
10.0, 348.60542461974546, 160.4491878990084, 5.981969979126006, 248.6939973034896, -0.01600000075995922, -0.01600000075995922, 0.49600002355873585, 0.0, 0.0, 0.0, 0.0, 0.0, 1.7404839199849532E9, 0.0, 2025-02-25 11:45:19.984
11.0, 141.9422929682769, -17.035244298167527, 11.07197381881997, 36.70898801507428, -0.01600000075995922, -0.01600000075995922, 0.49600002355873585, 0.0, 0.0, 0.0, 0.0, 0.0, 1.7404839199851673E9, 0.0, 2025-02-25 11:45:19.985
11.0, 304.4876947924495, -208.43958413042128, 10.847579821478575, 217.15729092713445, -0.01600000075995922, -0.01600000075995922, 0.49600002355873585, 0.0, 0.0, 0.0, 0.0, 0.0, 1.7404839199852097E9, 0.0, 2025-02-25 11:45:19.985
12.0, 472.65229630004615, -49.347979915328324, 9.673251235391945, 411.374035526067, -0.01600000075995922, -0.01600000075995922, 0.49600002355873585, 0.0, 0.0, 0.0, 0.0, 0.0, 1.7404839200133138E9, 0.0, 2025-02-25 11:45:20.013
12.0, 288.4566136323847, 156.47367424611002, 11.027095019351691, 242.34738707868382, -0.01600000075995922, -0.01600000075995922, 0.49600002355873585, 0.0, 0.0, 0.0, 0.0, 0.0, 1.7404839200133665E9, 0.0, 2025-02-25 11:45:20.013
13.0, 111.89593672426417, -10.980346269905567, 12.66143129998818, 36.52573291724548, -0.01600000075995922, -0.01600000075995922, 0.49600002355873585, 0.0, 0.0, 0.0, 0.0, 0.0, 1.7404839200135193E9, 0.0, 2025-02-25 11:45:20.013
13.0, 316.05894525535405, -217.89405121840537, 13.031681395601481, 210.2459558090195, -0.01600000075995922, -0.01600000075995922, 0.49600002355873585, 0.0, 0.0, 0.0, 0.0, 0.0, 1.7404839200136201E9, 0.0, 2025-02-25 11:45:20.013
14.0, 509.31827546563, -21.27255094796419, 11.270188516471535, 432.81488197203726, -0.01600000075995922, -0.01600000075995922, 0.49600002355873585, 0.0, 0.0, 0.0, 0.0, 0.0, 1.7404839200440037E9, 0.0, 2025-02-25 11:45:20.044
14.0, 333.27183480141684, 165.98797973338515, 11.07571371877566, 243.06544787017629, -0.01600000075995922, -0.01600000075995922, 0.49600002355873585, 0.0, 0.0, 0.0, 0.0, 0.0, 1.7404839200440552E9, 0.0, 2025-02-25 11:45:20.044
15.0, 155.37601360911503, -18.224532484076917, 9.83406693348661, 16.371412056032568, -0.01600000075995922, -0.01600000075995922, 0.49600002355873585, 0.0, 0.0, 0.0, 0.0, 0.0, 1.7404839200444808E9, 0.0, 2025-02-25 11:45:20.044
15.0, 366.5513345571235, -203.66747178696096, 13.824540186207741, 209.51293541770428, -0.01600000075995922, -0.01600000075995922, 0.49600002355873585, 0.0, 0.0, 0.0, 0.0, 0.0, 1.7404839200445104E9, 0.0, 2025-02-25 11:45:20.044
16.0, 512.0895413327962, -71.98559434711933, 9.613412836100906, 367.8042010422796, -0.01600000075995922, -0.01600000075995922, 0.49600002355873585, 0.0, 0.0, 0.0, 0.0, 0.0, 1.7404839200447187E9, 0.0, 2025-02-25 11:45:20.044
16.0, 740.0925421314314, 42.36184679809958, 11.47962291399017, 596.5963207315654, -0.01600000075995922, -0.01600000075995922, 0.49600002355873585, 0.0, 0.0, 0.0, 0.0, 0.0, 1.7404839200447512E9, 0.0, 2025-02-25 11:45:20.044
17.0, 548.430149202235, -114.7214311407879, 13.386971891392022, 388.9570751916617, -0.01600000075995922, -0.01600000075995922, 0.49600002355873585, 0.0, 0.0, 0.0, 0.0, 0.0, 1.7404839200449014E9, 0.0, 2025-02-25 11:45:20.044
17.0, 731.4515032838099, -324.9711268497631, 10.002362431492656, 562.348186887335, -0.01600000075995922, -0.01600000075995922, 0.49600002355873585, 0.0, 0.0, 0.0, 0.0, 0.0, 1.740483920044952E9, 0.0, 2025-02-25 11:45:20.044
18.0, 904.8220455297269, -151.3687108065933, 12.122885706368834, 769.7256394303404, -0.01600000075995922, -0.01600000075995922, 0.49600002355873585, 0.0, 0.0, 0.0, 0.0, 0.0, 1.740483920073E9, 0.0, 2025-02-25 11:45:20.073
18.0, 737.1978595657274, 59.397091096267104, 10.899938420858234, 591.9850240861997, -0.01600000075995922, -0.01600000075995922, 0.49600002355873585, 0.0, 0.0, 0.0, 0.0, 0.0, 1.7404839200731325E9, 0.0, 2025-02-25 11:45:20.073
19.0, 554.6608225284144, -104.17865316569805, 17.740215439815074, 400.1879947585985, -0.01600000075995922, -0.01600000075995922, 0.49600002355873585, 0.0, 0.0, 0.0, 0.0, 0.0, 1.7404839200735068E9, 0.0, 2025-02-25 11:45:20.073
19.0, 745.5210069171153, -289.8497263658792, 13.327133492100984, 589.7878328622319, -0.01600000075995922, -0.01600000075995922, 0.49600002355873585, 0.0, 0.0, 0.0, 0.0, 0.0, 1.740483920073553E9, 0.0, 2025-02-25 11:45:20.073
20.0, 918.943907762412, -119.57208138331771, 11.543201213236898, 801.4923496539705, -0.01600000075995922, -0.01600000075995922, 0.7520000357180834, 0.0, 0.0, 0.0, 0.0, 0.0, 1.7404839201028001E9, 0.0, 2025-02-25 11:45:20.102
20.0, 742.5122574027628, 95.72273936588317, 12.347279703710228, 627.1774826692417, -0.01600000075995922, -0.01600000075995922, 0.7520000357180834, 0.0, 0.0, 0.0, 0.0, 0.0, 1.7404839201028588E9, 0.0, 2025-02-25 11:45:20.102
21.0, 591.7269709892571, -49.78180831018835, 12.624032300431281, 451.12917205505073, -0.01600000075995922, -0.03200000151991844, 0.7520000357180834, 0.0, 0.0, 0.0, 0.0, 0.0, 1.7404839201037555E9, 0.0, 2025-02-25 11:45:20.103
21.0, 778.6490407246165, -240.77101924736053, 11.202870317269117, 644.5511879133992, -0.01600000075995922, -0.03200000151991844, 0.7520000357180834, 0.0, 0.0, 0.0, 0.0, 0.0, 1.7404839201037996E9, 0.0, 2025-02-25 11:45:20.103
22.0, 956.5822609164752, -55.94516343716532, 11.617999212350696, 862.1834461349063, -0.01600000075995922, -0.03200000151991844, 0.7520000357180834, 0.0, 0.0, 0.0, 0.0, 0.0, 1.7404839201041305E9, 0.0, 2025-02-25 11:45:20.104
22.0, 782.7348814262077, 148.2571140434593, 10.851319721434265, 682.5055626137182, -0.01600000075995922, -0.03200000151991844, 0.7520000357180834, 0.0, 0.0, 0.0, 0.0, 0.0, 1.7404839201041615E9, 0.0, 2025-02-25 11:45:20.104
23.0, 634.0289793880656, -1.8400307781994343, 10.589526724535972, 494.893481336534, -0.01600000075995922, -0.03200000151991844, 0.7520000357180834, 0.0, 0.0, 0.0, 0.0, 0.0, 1.7404839201046424E9, 0.0, 2025-02-25 11:45:20.104
23.0, 804.1364589226432, -212.0261481879279, 8.921531344298273, 670.3564976076595, -0.01600000075995922, -0.03200000151991844, 0.7520000357180834, 0.0, 0.0, 0.0, 0.0, 0.0, 1.7404839201047468E9, 0.0, 2025-02-25 11:45:20.104
24.0, 973.3482324178331, -48.925371220335364, 11.45718351425603, 869.5510490476154, -0.01600000075995922, -0.03200000151991844, 0.7520000357180834, 0.0, 0.0, 0.0, 0.0, 0.0, 1.7404839201331975E9, 0.0, 2025-02-25 11:45:20.133
24.0, 791.0935578271747, 162.46499397512525, 9.680731035303324, 703.7369746621698, -0.01600000075995922, -0.03200000151991844, 0.7520000357180834, 0.0, 0.0, 0.0, 0.0, 0.0, 1.740483920133248E9, 0.0, 2025-02-25 11:45:20.133
25.0, 613.051880536601, -8.096883404068649, 13.809580586384982, 497.1673405095935, -0.01600000075995922, -0.03200000151991844, 0.7520000357180834, 0.0, 0.0, 0.0, 0.0, 0.0, 1.7404839201333764E9, 0.0, 2025-02-25 11:45:20.133
25.0, 772.8447159933858, -216.54020743444562, 12.25752210477367, 670.8688639015891, -0.01600000075995922, -0.03200000151991844, 0.7520000357180834, 0.0, 0.0, 0.0, 0.0, 0.0, 1.7404839201334057E9, 0.0, 2025-02-25 11:45:20.133
26.0, 931.0350043191575, -55.79930733889341, 9.613412836100906, 864.7789367041551, -0.01600000075995922, -0.03200000151991844, 0.7520000357180834, 0.0, 0.0, 0.0, 0.0, 0.0, 1.740483920162903E9, 0.0, 2025-02-25 11:45:20.162
26.0, 741.6109415134415, 154.218514572829, 13.211196593474597, 694.7948738681152, -0.01600000075995922, -0.03200000151991844, 0.7520000357180834, 0.0, 0.0, 0.0, 0.0, 0.0, 1.7404839201629655E9, 0.0, 2025-02-25 11:45:20.162
27.0, 577.4330733586103, -12.10231625661254, 11.229049616958946, 501.2438314612955, -0.01600000075995922, -0.03200000151991844, 0.7520000357180834, 0.0, 0.0, 0.0, 0.0, 0.0, 1.7404839201634216E9, 0.0, 2025-02-25 11:45:20.163
27.0, 753.8834232180379, -225.72166182566434, 12.044347807299346, 672.2862859847955, -0.01600000075995922, -0.03200000151991844, 0.7520000357180834, 0.0, 0.0, 0.0, 0.0, 0.0, 1.7404839201635478E9, 0.0, 2025-02-25 11:45:20.163
28.0, 928.8583825449459, -52.81860707420856, 8.431604450102895, 873.2535500037484, -0.01600000075995922, -0.03200000151991844, 0.7520000357180834, 0.0, 0.0, 0.0, 0.0, 0.0, 1.7404839201641364E9, 0.0, 2025-02-25 11:45:20.164
28.0, 778.1422842806205, 176.747671905905, 11.285148116294295, 717.3202913012356, -0.01600000075995922, -0.03200000151991844, 0.7520000357180834, 0.0, 0.0, 0.0, 0.0, 0.0, 1.740483920164206E9, 0.0, 2025-02-25 11:45:20.164
29.0, 641.8678096951917, 38.59576754271984, 13.401931491214782, 551.4145893668756, -0.01600000075995922, -0.03200000151991844, 0.7520000357180834, 0.0, 0.0, 0.0, 0.0, 0.0, 1.7404839201650016E9, 0.0, 2025-02-25 11:45:20.165
29.0, 809.2264627623372, -165.8234241353348, 13.44681029068306, 734.0208145533688, -0.01600000075995922, -0.03200000151991844, 0.7520000357180834, 0.0, 0.0, 0.0, 0.0, 0.0, 1.7404839201650448E9, 0.0, 2025-02-25 11:45:20.165
30.0, 957.2517030085437, -6.144655627198517, 12.549234301317483, 917.8855160749517, -0.01600000075995922, -0.03200000151991844, 0.8640000410377979, 0.0, 0.0, 0.0, 0.0, 0.0, 1.740483920192881E9, 0.0, 2025-02-25 11:45:20.192
30.0, 806.816097240895, 220.41474378854036, 10.312774127814919, 758.8855394087732, -0.01600000075995922, -0.03200000151991844, 0.8640000410377979, 0.0, 0.0, 0.0, 0.0, 0.0, 1.740483920192936E9, 0.0, 2025-02-25 11:45:20.192
31.0, 680.6655318355188, 72.11275094561279, 14.632358576636761, 583.2747970893979, -0.01600000075995922, -0.03200000151991844, 0.8640000410377979, 0.0, 0.0, 0.0, 0.0, 0.0, 1.7404839201937218E9, 0.0, 2025-02-25 11:45:20.193
31.0, 851.3227766635828, -155.3330047596246, 14.67723737610504, 730.9653162895702, -0.01600000075995922, -0.03200000151991844, 0.8640000410377979, 0.0, 0.0, 0.0, 0.0, 0.0, 1.7404839201937723E9, 0.0, 2025-02-25 11:45:20.193
32.0, 1017.2658775974996, -1.2266871854662895, 13.603886088822037, 912.3803833401762, -0.03200000151991844, -0.03200000151991844, 0.8640000410377979, 0.0, 0.0, 0.0, 0.0, 0.0, 1.7404839202227564E9, 0.0, 2025-02-25 11:45:20.222
32.0, 848.7852545436472, 211.37540559563786, 12.078006906900555, 740.0888022314757, -0.03200000151991844, -0.03200000151991844, 0.8640000410377979, 0.0, 0.0, 0.0, 0.0, 0.0, 1.7404839202228005E9, 0.0, 2025-02-25 11:45:20.222
33.0, 694.4620227720588, 63.93358974251896, 11.606779512483627, 561.1869479510933, -0.03200000151991844, -0.03200000151991844, 0.8640000410377979, 0.0, 0.0, 0.0, 0.0, 0.0, 1.7404839202233205E9, 0.0, 2025-02-25 11:45:20.223
33.0, 875.5461086765863, -143.0287339054048, 14.131211982574314, 739.469848788809, -0.03200000151991844, -0.03200000151991844, 0.8640000410377979, 0.0, 0.0, 0.0, 0.0, 0.0, 1.7404839202233565E9, 0.0, 2025-02-25 11:45:20.223
34.0, 1001.5956967831589, -20.715305854566395, 10.69424392329529, 879.1588520337828, -0.03200000151991844, -0.03200000151991844, 0.8640000410377979, 0.0, 0.0, 0.0, 0.0, 0.0, 1.7404839202239876E9, 0.0, 2025-02-25 11:45:20.223
34.0, 824.6815993292257, 171.17148107197136, 8.67095804726705, 688.1079327473417, -0.03200000151991844, -0.03200000151991844, 0.8640000410377979, 0.0, 0.0, 0.0, 0.0, 0.0, 1.740483920224026E9, 0.0, 2025-02-25 11:45:20.224
35.0, 660.1372209787369, 10.86440937127918, 10.608226224314421, 498.80541669018567, -0.03200000151991844, -0.03200000151991844, 0.8640000410377979, 0.0, 0.0, 0.0, 0.0, 0.0, 1.7404839202246048E9, 0.0, 2025-02-25 11:45:20.224
35.0, 836.8456239351071, -208.59292002860457, 16.075959959533066, 651.7243160284124, -0.03200000151991844, -0.03200000151991844, 0.8640000410377979, 0.0, 0.0, 0.0, 0.0, 0.0, 1.740483920224652E9, 0.0, 2025-02-25 11:45:20.224
36.0, 994.3328110692091, -50.69808379933238, 10.23797612870112, 831.2021149019711, -0.03200000151991844, -0.03200000151991844, 0.8640000410377979, 0.0, 0.0, 0.0, 0.0, 0.0, 1.7404839202535233E9, 0.0, 2025-02-25 11:45:20.253
36.0, 827.6622995939106, 144.78274698462337, 12.055567507166415, 648.0236850222573, -0.03200000151991844, -0.03200000151991844, 0.8640000410377979, 0.0, 0.0, 0.0, 0.0, 0.0, 1.740483920253964E9, 0.0, 2025-02-25 11:45:20.253
37.0, 724.3438234180212, 30.685879136435688, 16.154497858602554, 521.9927964154631, -0.03200000151991844, -0.03200000151991844, 0.8640000410377979, 0.0, 0.0, 0.0, 0.0, 0.0, 1.7404839202540443E9, 0.0, 2025-02-25 11:45:20.254
37.0, 893.688363361638, -205.32798736728728, 12.171504405792803, 654.237528798636, -0.03200000151991844, -0.03200000151991844, 0.8640000410377979, 0.0, 0.0, 0.0, 0.0, 0.0, 1.7404839202540665E9, 0.0, 2025-02-25 11:45:20.254
38.0, 987.8179053463973, -102.99310487974435, 7.563947660382837, 796.4846236133017, -0.03200000151991844, -0.03200000151991844, 0.8640000410377979, 0.0, 0.0, 0.0, 0.0, 0.0, 1.7404839202829485E9, 0.0, 2025-02-25 11:45:20.282
38.0, 810.6644542953, 112.8327816631645, 10.769041922409087, 627.2971594678238, -0.03200000151991844, -0.03200000151991844, 0.8640000410377979, 0.0, 0.0, 0.0, 0.0, 0.0, 1.7404839202830024E9, 0.0, 2025-02-25 11:45:20.283
39.0, 689.4505568314344, -28.696252360008657, 11.004655619617552, 479.5150127187371, -0.03200000151991844, -0.03200000151991844, 0.8640000410377979, 0.0, 0.0, 0.0, 0.0, 0.0, 1.7404839202833035E9, 0.0, 2025-02-25 11:45:20.283
39.0, 839.512172603514, -254.2309191878885, 14.019014983903617, 636.1700721126981, -0.03200000151991844, -0.03200000151991844, 0.8640000410377979, 0.0, 0.0, 0.0, 0.0, 0.0, 1.740483920283346E9, 0.0, 2025-02-25 11:45:20.283
40.0, 975.6183516909368, -104.09637536667287, 11.300107716117054, 808.1905104746111, -0.03200000151991844, -0.03200000151991844, 0.9280000440776348, 0.0, 0.0, 0.0, 0.0, 0.0, 1.7404839202842588E9, 0.0, 2025-02-25 11:45:20.284
40.0, 777.4391830889508, 100.22931881248951, 14.501462078187615, 641.116089804098, -0.03200000151991844, -0.03200000151991844, 0.9280000440776348, 0.0, 0.0, 0.0, 0.0, 0.0, 1.7404839202843292E9, 0.0, 2025-02-25 11:45:20.284
41.0, 639.9268016181886, -46.524355448782444, 11.909711408894509, 480.2293336102739, -0.03200000151991844, -0.03200000151991844, 0.9280000440776348, 0.0, 0.0, 0.0, 0.0, 0.0, 1.740483920284775E9, 0.0, 2025-02-25 11:45:20.284
41.0, 841.3783826814033, -243.67692151293159, 13.439330490771681, 682.4513340643607, -0.03200000151991844, -0.03200000151991844, 0.9280000440776348, 0.0, 0.0, 0.0, 0.0, 0.0, 1.7404839202848232E9, 0.0, 2025-02-25 11:45:20.284
42.0, 945.2054852512665, -108.6066947132349, 9.976183131802827, 837.6684019253589, -0.03200000151991844, -0.03200000151991844, 0.9280000440776348, 0.0, 0.0, 0.0, 0.0, 0.0, 1.7404839203134537E9, 0.0, 2025-02-25 11:45:20.313
42.0, 763.3509799558669, 99.48133882135153, 11.920931108761579, 656.0682098269463, -0.03200000151991844, -0.03200000151991844, 0.9280000440776348, 0.0, 0.0, 0.0, 0.0, 0.0, 1.7404839203135116E9, 0.0, 2025-02-25 11:45:20.313
43.0, 653.3418227592483, -16.377021905966103, 9.617152736056596, 524.610726384446, -0.03200000151991844, -0.03200000151991844, 0.9280000440776348, 0.0, 0.0, 0.0, 0.0, 0.0, 1.7404839203136318E9, 0.0, 2025-02-25 11:45:20.313
43.0, 824.2832999839447, -225.15693693235517, 15.271881469059736, 709.3935733451508, -0.03200000151991844, -0.03200000151991844, 0.9280000440776348, 0.0, 0.0, 0.0, 0.0, 0.0, 1.7404839203141541E9, 0.0, 2025-02-25 11:45:20.314
44.0, 936.7907103509642, -102.28626378811896, 11.48336281394586, 854.576489625033, -0.03200000151991844, -0.03200000151991844, 0.9280000440776348, 0.0, 0.0, 0.0, 0.0, 0.0, 1.7404839203432353E9, 0.0, 2025-02-25 11:45:20.343
44.0, 783.7409145142883, 132.67295092809945, 11.412304714787751, 700.273827303201, -0.03200000151991844, -0.03200000151991844, 0.9280000440776348, 0.0, 0.0, 0.0, 0.0, 0.0, 1.7404839203433204E9, 0.0, 2025-02-25 11:45:20.343
45.0, 665.900406810455, -3.6875413563102484, 10.64936512382701, 546.9454089198261, -0.03200000151991844, -0.03200000151991844, 0.9280000440776348, 0.0, 0.0, 0.0, 0.0, 0.0, 1.7404839203445585E9, 0.0, 2025-02-25 11:45:20.344
45.0, 817.3420456661843, -228.97911468707025, 12.485656002070755, 704.808455999475, -0.03200000151991844, -0.03200000151991844, 0.9280000440776348, 0.0, 0.0, 0.0, 0.0, 0.0, 1.7404839203446012E9, 0.0, 2025-02-25 11:45:20.344
46.0, 958.6766048916616, -73.91538272425532, 10.2828549281694, 884.7238231678493, -0.03200000151991844, -0.03200000151991844, 0.9280000440776348, 0.0, 0.0, 0.0, 0.0, 0.0, 1.7404839203446362E9, 0.0, 2025-02-25 11:45:20.344
46.0, 785.8576978892088, 144.7677873848006, 10.66806462360546, 705.217975044623, -0.03200000151991844, -0.03200000151991844, 0.9280000440776348, 0.0, 0.0, 0.0, 0.0, 0.0, 1.7404839203446665E9, 0.0, 2025-02-25 11:45:20.344
47.0, 669.8871401632205, 9.850896483287215, 14.69593687588349, 548.2805532040074, -0.03200000151991844, -0.03200000151991844, 0.9280000440776348, 0.0, 0.0, 0.0, 0.0, 0.0, 1.740483920345831E9, 0.0, 2025-02-25 11:45:20.345
47.0, 879.2224303330295, -171.09294317290187, 11.84613310964778, 751.0336194518022, -0.03200000151991844, -0.03200000151991844, 0.9280000440776348, 0.0, 0.0, 0.0, 0.0, 0.0, 1.7404839203458722E9, 0.0, 2025-02-25 11:45:20.345
48.0, 989.9571281210519, -55.395398143678904, 13.435590590815991, 893.4938885639422, -0.03200000151991844, -0.03200000151991844, 0.9280000440776348, 0.0, 0.0, 0.0, 0.0, 0.0, 1.7404839203728647E9, 0.0, 2025-02-25 11:45:20.372
48.0, 795.4206220759079, 138.85874545481056, 12.380938803311437, 694.267547974363, -0.03200000151991844, -0.03200000151991844, 0.9280000440776348, 0.0, 0.0, 0.0, 0.0, 0.0, 1.740483920372918E9, 0.0, 2025-02-25 11:45:20.372
49.0, 696.8331193439662, 21.3810080466792, 8.558761048596352, 560.973773653619, -0.03200000151991844, -0.03200000151991844, 0.9280000440776348, 0.0, 0.0, 0.0, 0.0, 0.0, 1.7404839203732872E9, 0.0, 2025-02-25 11:45:20.373
49.0, 839.2204604069702, -213.07332017552108, 11.655398211907595, 709.475851144176, -0.03200000151991844, -0.03200000151991844, 0.9280000440776348, 0.0, 0.0, 0.0, 0.0, 0.0, 1.7404839203733282E9, 0.0, 2025-02-25 11:45:20.373
50.0, 955.3293944313191, -101.87113489303738, 10.626925724092871, 855.4591060145758, -0.03200000151991844, -0.03200000151991844, 0.9600000455975533, 0.0, 0.0, 0.0, 0.0, 0.0, 1.7404839204028409E9, 0.0, 2025-02-25 11:45:20.402
50.0, 781.766247337684, 123.38677933812141, 11.834913409780711, 710.9063628772274, -0.03200000151991844, -0.03200000151991844, 0.9600000455975533, 0.0, 0.0, 0.0, 0.0, 0.0, 1.7404839204028957E9, 0.0, 2025-02-25 11:45:20.402
51.0, 655.1107954382896, -37.85900725144893, 13.158837994094938, 573.4912188053131, -0.03200000151991844, -0.03200000151991844, 0.9600000455975533, 0.0, 0.0, 0.0, 0.0, 0.0, 1.7404839204033368E9, 0.0, 2025-02-25 11:45:20.403
51.0, 817.7085558618419, -271.44193878397346, 13.45429009059444, 757.4064089762978, -0.03200000151991844, -0.03200000151991844, 0.9600000455975533, 0.0, 0.0, 0.0, 0.0, 0.0, 1.740483920403368E9, 0.0, 2025-02-25 11:45:20.403
52.0, 944.1657930635847, -138.81760655529797, 10.821400521788746, 914.6692021130584, -0.01600000075995922, -0.03200000151991844, 0.9600000455975533, 0.0, 0.0, 0.0, 0.0, 0.0, 1.740483920403814E9, 0.0, 2025-02-25 11:45:20.403
52.0, 765.4902027305216, 61.775667468085885, 15.417737567331642, 769.9257240779698, -0.01600000075995922, -0.03200000151991844, 0.9600000455975533, 0.0, 0.0, 0.0, 0.0, 0.0, 1.7404839204038503E9, 0.0, 2025-02-25 11:45:20.403
53.0, 683.4704568022862, -63.23048855084926, 12.25004230486229, 646.2098335437477, -0.01600000075995922, -0.03200000151991844, 0.9600000455975533, 0.0, 0.0, 0.0, 0.0, 0.0, 1.7404839204336283E9, 0.0, 2025-02-25 11:45:20.433
53.0, 883.3737192838453, -249.65328164212406, 12.833466697949916, 826.3626843593083, -0.01600000075995922, -0.03200000151991844, 0.9600000455975533, 0.0, 0.0, 0.0, 0.0, 0.0, 1.7404839204338949E9, 0.0, 2025-02-25 11:45:20.433
54.0, 993.8615836747922, -127.74750268645585, 6.367179674562067, 949.9701177948155, -0.01600000075995922, -0.03200000151991844, 0.9600000455975533, 0.0, 0.0, 0.0, 0.0, 0.0, 1.740483920434759E9, 0.0, 2025-02-25 11:45:20.434
54.0, 825.4445389201865, 89.38360894098878, 7.8369603571482, 778.7668475732207, -0.01600000075995922, -0.03200000151991844, 0.9600000455975533, 0.0, 0.0, 0.0, 0.0, 0.0, 1.740483920434802E9, 0.0, 2025-02-25 11:45:20.434
55.0, 758.7920419098809, -14.45471332874149, 10.817660621833056, 662.5905953496695, -0.01600000075995922, -0.03200000151991844, 0.9600000455975533, 0.0, 0.0, 0.0, 0.0, 0.0, 1.7404839204348428E9, 0.0, 2025-02-25 11:45:20.434
55.0, 921.1541886362247, -239.79864525888115, 14.542600977700204, 816.3397524780594, -0.01600000075995922, -0.03200000151991844, 0.9600000455975533, 0.0, 0.0, 0.0, 0.0, 0.0, 1.7404839204348764E9, 0.0, 2025-02-25 11:45:20.434
56.0, 1024.786816408392, -124.47135032527149, 11.180430917534977, 940.6802063048817, -0.01600000075995922, -0.03200000151991844, 0.9600000455975533, 0.0, 0.0, 0.0, 0.0, 0.0, 1.7404839204350593E9, 0.0, 2025-02-25 11:45:20.435
56.0, 864.7284480547532, 108.01953042019159, 8.24834935227409, 782.7648006258532, -0.01600000075995922, -0.03200000151991844, 0.9600000455975533, 0.0, 0.0, 0.0, 0.0, 0.0, 1.740483920435105E9, 0.0, 2025-02-25 11:45:20.435
57.0, 772.106085752137, -13.560877239331603, 12.25004230486229, 643.2179135791957, -0.01600000075995922, -0.03200000151991844, 0.9600000455975533, 0.0, 0.0, 0.0, 0.0, 0.0, 1.7404839204636075E9, 0.0, 2025-02-25 11:45:20.463
57.0, 927.7700716578402, -238.111950378865, 12.70631009945646, 791.1029075770639, -0.01600000075995922, -0.03200000151991844, 0.9600000455975533, 0.0, 0.0, 0.0, 0.0, 0.0, 1.7404839204636648E9, 0.0, 2025-02-25 11:45:20.463
58.0, 1021.4246463482268, -127.7998612858355, 8.700877246912569, 915.7388135003857, -0.01600000075995922, -0.03200000151991844, 0.9600000455975533, 0.0, 0.0, 0.0, 0.0, 0.0, 1.7404839204638023E9, 0.0, 2025-02-25 11:45:20.463
58.0, 841.1932576335967, 87.09853006806225, 12.343539803754538, 750.81857520435, -0.01600000075995922, -0.03200000151991844, 0.9600000455975533, 0.0, 0.0, 0.0, 0.0, 0.0, 1.7404839204638357E9, 0.0, 2025-02-25 11:45:20.463
59.0, 758.2048776168376, -23.946579416282475, 12.803547498304397, 629.4737812420353, -0.01600000075995922, -0.03200000151991844, 0.9600000455975533, 0.0, 0.0, 0.0, 0.0, 0.0, 1.7404839204928873E9, 0.0, 2025-02-25 11:45:20.492
59.0, 902.8511182530783, -246.62022277805954, 16.154497858602554, 780.6947660003789, -0.01600000075995922, -0.03200000151991844, 0.9600000455975533, 0.0, 0.0, 0.0, 0.0, 0.0, 1.7404839204929552E9, 0.0, 2025-02-25 11:45:20.492
60.0, 994.2056544707157, -126.76016909815371, 8.166071553248912, 903.2924264478497, -0.01600000075995922, -0.03200000151991844, 0.9760000463575125, 0.0, 0.0, 0.0, 0.0, 0.0, 1.740483920494122E9, 0.0, 2025-02-25 11:45:20.494
60.0, 823.9822380375117, 96.3809617580846, 15.002608672250062, 744.1204143837094, -0.01600000075995922, -0.03200000151991844, 0.9760000463575125, 0.0, 0.0, 0.0, 0.0, 0.0, 1.740483920494168E9, 0.0, 2025-02-25 11:45:20.494
61.0, 743.9670784855261, -14.854882624000311, 11.311327415984124, 623.6357974112034, -0.01600000075995922, -0.03200000151991844, 0.9760000463575125, 0.0, 0.0, 0.0, 0.0, 0.0, 1.7404839204942055E9, 0.0, 2025-02-25 11:45:20.494
61.0, 882.0310951997526, -255.46134627331048, 12.051827607210726, 770.5558972205035, -0.01600000075995922, -0.03200000151991844, 0.9760000463575125, 0.0, 0.0, 0.0, 0.0, 0.0, 1.740483920494237E9, 0.0, 2025-02-25 11:45:20.494
62.0, 972.0878861327656, -142.14985741581768, 9.751789134461433, 889.4847158114426, -0.01600000075995922, -0.03200000151991844, 0.9760000463575125, 0.0, 0.0, 0.0, 0.0, 0.0, 1.740483920494586E9, 0.0, 2025-02-25 11:45:20.494
62.0, 805.2789983591065, 79.90296255331486, 10.997175819706172, 735.3615686874837, -0.01600000075995922, -0.03200000151991844, 0.9760000463575125, 0.0, 0.0, 0.0, 0.0, 0.0, 1.7404839204946256E9, 0.0, 2025-02-25 11:45:20.494
63.0, 711.8263782663271, -35.166279283352196, 11.49084261385724, 607.5654473016039, -0.01600000075995922, -0.03200000151991844, 0.9760000463575125, 0.0, 0.0, 0.0, 0.0, 0.0, 1.7404839205229304E9, 0.0, 2025-02-25 11:45:20.522
63.0, 866.0205834894441, -264.9045936614275, 13.192497093696147, 761.0378518332727, -0.01600000075995922, -0.03200000151991844, 0.9760000463575125, 0.0, 0.0, 0.0, 0.0, 0.0, 1.74048392052305E9, 0.0, 2025-02-25 11:45:20.523
64.0, 946.1442001401447, -154.73088086675853, 10.548387825023383, 873.5303026004694, -0.01600000075995922, -0.03200000151991844, 0.9760000463575125, 0.0, 0.0, 0.0, 0.0, 0.0, 1.7404839205233452E9, 0.0, 2025-02-25 11:45:20.523
64.0, 809.9837925033644, 77.16535578574985, 10.25293572852388, 724.370002717711, -0.01600000075995922, -0.03200000151991844, 0.9760000463575125, 0.0, 0.0, 0.0, 0.0, 0.0, 1.7404839205233943E9, 0.0, 2025-02-25 11:45:20.523
65.0, 722.3728961413726, -32.56330891419202, 11.202870317269117, 611.989748949185, -0.01600000075995922, -0.03200000151991844, 0.9760000463575125, 0.0, 0.0, 0.0, 0.0, 0.0, 1.7404839205528307E9, 0.0, 2025-02-25 11:45:20.552
65.0, 873.7808758975007, -267.54870293010026, 12.399638303089887, 747.611610992346, -0.01600000075995922, -0.03200000151991844, 0.9760000463575125, 0.0, 0.0, 0.0, 0.0, 0.0, 1.740483920552885E9, 0.0, 2025-02-25 11:45:20.552
66.0, 955.7632228261791, -156.34651764761657, 12.122885706368834, 854.1052622306161, -0.01600000075995922, -0.03200000151991844, 0.9760000463575125, 0.0, 0.0, 0.0, 0.0, 0.0, 1.7404839205532713E9, 0.0, 2025-02-25 11:45:20.553
66.0, 795.1102103795856, 70.72898796200752, 15.040007671806961, 703.650956963189, -0.01600000075995922, -0.03200000151991844, 0.9760000463575125, 0.0, 0.0, 0.0, 0.0, 0.0, 1.7404839205533023E9, 0.0, 2025-02-25 11:45:20.553
67.0, 720.1775748673826, -31.160846430808306, 12.69509039958939, 594.4047393575311, -0.01600000075995922, -0.03200000151991844, 0.9760000463575125, 0.0, 0.0, 0.0, 0.0, 0.0, 1.7404839205540788E9, 0.0, 2025-02-25 11:45:20.554
67.0, 869.5847081472166, -269.25409730989486, 14.942770272959024, 726.2493024454452, -0.01600000075995922, -0.03200000151991844, 0.9760000463575125, 0.0, 0.0, 0.0, 0.0, 0.0, 1.740483920554263E9, 0.0, 2025-02-25 11:45:20.554
68.0, 964.3388134245761, -152.69263539090753, 11.356206215452403, 854.0304642315023, -0.01600000075995922, -0.03200000151991844, 0.9760000463575125, 0.0, 0.0, 0.0, 0.0, 0.0, 1.7404839205548947E9, 0.0, 2025-02-25 11:45:20.554
68.0, 860.1134115094319, -356.08896443108097, 12.590373200830072, 754.8501873565838, -0.01600000075995922, -0.03200000151991844, 0.9760000463575125, 0.0, 0.0, 0.0, 0.0, 0.0, 1.7404839205549545E9, 0.0, 2025-02-25 11:45:20.554
69.0, 732.9829923156649, -509.2640469162725, 11.404824914876372, 593.9746508626267, -0.01600000075995922, -0.03200000151991844, 0.9760000463575125, 0.0, 0.0, 0.0, 0.0, 0.0, 1.74048392058313E9, 0.0, 2025-02-25 11:45:20.583
69.0, 878.8559201373719, -264.18653286993504, 10.23797612870112, 739.3539118901826, -0.01600000075995922, -0.03200000151991844, 0.9760000463575125, 0.0, 0.0, 0.0, 0.0, 0.0, 1.7404839205831664E9, 0.0, 2025-02-25 11:45:20.583
70.0, 947.6588596221991, -162.7417465718463, 10.25667562847957, 832.3614838882349, -0.01600000075995922, -0.03200000151991844, 0.9920000471174717, 0.0, 0.0, 0.0, 0.0, 0.0, 1.740483920583456E9, 0.0, 2025-02-25 11:45:20.583
70.0, 756.1890715407208, 54.30708725657314, 10.6905040233396, 665.0738889202476, -0.01600000075995922, -0.03200000151991844, 0.9920000471174717, 0.0, 0.0, 0.0, 0.0, 0.0, 1.7404839205834916E9, 0.0, 2025-02-25 11:45:20.583
71.0, 693.5420073829591, -36.879153463058174, 10.720423222985119, 565.1736813038588, -0.01600000075995922, -0.04800000227987766, 0.9920000471174717, 0.0, 0.0, 0.0, 0.0, 0.0, 1.7404839206134007E9, 0.0, 2025-02-25 11:45:20.613
71.0, 862.7219917285256, -267.6160211293027, 14.157391282264143, 734.8248930438422, -0.01600000075995922, -0.04800000227987766, 0.9920000471174717, 0.0, 0.0, 0.0, 0.0, 0.0, 1.740483920613452E9, 0.0, 2025-02-25 11:45:20.613
72.0, 920.0434383493848, -166.47416672762483, 9.07486724248156, 818.5051545524038, -0.03200000151991844, -0.04800000227987766, 0.9920000471174717, 0.0, 0.0, 0.0, 0.0, 0.0, 1.7404839206136389E9, 0.0, 2025-02-25 11:45:20.613
72.0, 754.4313185615465, 75.80777210183442, 14.374305479694158, 667.4188061924651, -0.03200000151991844, -0.04800000227987766, 0.9920000471174717, 0.0, 0.0, 0.0, 0.0, 0.0, 1.740483920613674E9, 0.0, 2025-02-25 11:45:20.613
73.0, 696.0103413537145, -11.533851463347673, 15.238222369458526, 579.8415689300746, -0.03200000151991844, -0.04800000227987766, 0.9920000471174717, 0.0, 0.0, 0.0, 0.0, 0.0, 1.740483920613962E9, 0.0, 2025-02-25 11:45:20.613
73.0, 825.4090098706074, -247.45796036813408, 13.641285088378936, 728.0594140239991, -0.03200000151991844, -0.04800000227987766, 0.9920000471174717, 0.0, 0.0, 0.0, 0.0, 0.0, 1.7404839206140049E9, 0.0, 2025-02-25 11:45:20.614
74.0, 903.9992675394751, -129.62867236416787, 11.288888016249985, 847.1490483130328, -0.03200000151991844, -0.04800000227987766, 0.9920000471174717, 0.0, 0.0, 0.0, 0.0, 0.0, 1.7404839206150744E9, 0.0, 2025-02-25 11:45:20.615
74.0, 742.1457472071052, 106.18697944190353, 14.493982278276235, 701.3883174899966, -0.03200000151991844, -0.04800000227987766, 0.9920000471174717, 0.0, 0.0, 0.0, 0.0, 0.0, 1.740483920615144E9, 0.0, 2025-02-25 11:45:20.615
75.0, 681.3798527270555, 16.93800689931959, 11.187910717446357, 609.46905637905, -0.03200000151991844, -0.04800000227987766, 0.9920000471174717, 0.0, 0.0, 0.0, 0.0, 0.0, 1.740483920642862E9, 0.0, 2025-02-25 11:45:20.642
75.0, 854.1950198295526, -194.80390889197588, 15.11480567092076, 778.3199295285158, -0.03200000151991844, -0.04800000227987766, 0.9920000471174717, 0.0, 0.0, 0.0, 0.0, 0.0, 1.740483920642907E9, 0.0, 2025-02-25 11:45:20.642
76.0, 922.4257546211593, -99.53369742073119, 7.743462858255953, 865.1753660994582, -0.03200000151991844, -0.04800000227987766, 0.9920000471174717, 0.0, 0.0, 0.0, 0.0, 0.0, 1.7404839206433933E9, 0.0, 2025-02-25 11:45:20.643
76.0, 710.6445698803291, 95.34500947035849, 12.410858002956957, 673.4924037205055, -0.03200000151991844, -0.04800000227987766, 0.9920000471174717, 0.0, 0.0, 0.0, 0.0, 0.0, 1.7404839206436892E9, 0.0, 2025-02-25 11:45:20.643
77.0, 682.8496334096417, 23.961539016105235, 13.016721795778722, 600.8523268811405, -0.03200000151991844, -0.04800000227987766, 0.9920000471174717, 0.0, 0.0, 0.0, 0.0, 0.0, 1.740483920673142E9, 0.0, 2025-02-25 11:45:20.673
77.0, 832.7653930834495, -212.57965338137, 15.230742569547147, 746.8972901008092, -0.03200000151991844, -0.04800000227987766, 0.9920000471174717, 0.0, 0.0, 0.0, 0.0, 0.0, 1.740483920673192E9, 0.0, 2025-02-25 11:45:20.673
78.0, 855.6685404120944, -142.64352420996875, 10.25293572852388, 810.1015993519686, -0.03200000151991844, -0.04800000227987766, 0.9920000471174717, 0.0, 0.0, 0.0, 0.0, 0.0, 1.7404839206733837E9, 0.0, 2025-02-25 11:45:20.673
78.0, 724.9347276110202, -361.06303137214854, 10.870019221212715, 695.1015456644818, -0.03200000151991844, -0.04800000227987766, 0.9920000471174717, 0.0, 0.0, 0.0, 0.0, 0.0, 1.740483920673448E9, 0.0, 2025-02-25 11:45:20.673
79.0, 683.8556664977223, -440.3788296324201, 12.930704096797854, 626.6464168755338, -0.03200000151991844, -0.04800000227987766, 0.9920000471174717, 0.0, 0.0, 0.0, 0.0, 0.0, 1.7404839206739728E9, 0.0, 2025-02-25 11:45:20.673
79.0, 843.734519653488, -667.2785599441268, 14.916590973269194, 782.0897486838512, -0.03200000151991844, -0.04800000227987766, 0.9920000471174717, 0.0, 0.0, 0.0, 0.0, 0.0, 1.740483920674009E9, 0.0, 2025-02-25 11:45:20.674
80.0, 919.4824533560313, -561.046701702755, 15.395298167597502, 872.9842772069387, -0.03200000151991844, -0.04800000227987766, 0.9760000463575125, 0.0, 0.0, 0.0, 0.0, 0.0, 1.7404839206747005E9, 0.0, 2025-02-25 11:45:20.674
80.0, 762.5469014653936, -341.83246579999104, 13.121438994538039, 711.1531962743029, -0.03200000151991844, -0.04800000227987766, 0.9760000463575125, 0.0, 0.0, 0.0, 0.0, 0.0, 1.740483920674772E9, 0.0, 2025-02-25 11:45:20.674
81.0, 707.944362112321, -446.1233159643598, 15.350419368129224, 613.3473326331005, -0.03200000151991844, -0.03200000151991844, 0.9760000463575125, 0.0, 0.0, 0.0, 0.0, 0.0, 1.7404839207030785E9, 0.0, 2025-02-25 11:45:20.703
81.0, 895.2217223434709, -667.1514033456333, 14.838053074199706, 770.0360511266626, -0.03200000151991844, -0.03200000151991844, 0.9760000463575125, 0.0, 0.0, 0.0, 0.0, 0.0, 1.7404839207031243E9, 0.0, 2025-02-25 11:45:20.703
82.0, 938.0585364359431, -595.0423922999762, 15.294320868793875, 848.6412683953531, -0.03200000151991844, -0.03200000151991844, 0.9760000463575125, 0.0, 0.0, 0.0, 0.0, 0.0, 1.7404839207033503E9, 0.0, 2025-02-25 11:45:20.703
82.0, 771.3506259610876, -368.4568135845475, 14.000315484125167, 686.9635233609006, -0.03200000151991844, -0.03200000151991844, 0.9760000463575125, 0.0, 0.0, 0.0, 0.0, 0.0, 1.7404839207033932E9, 0.0, 2025-02-25 11:45:20.703
83.0, 740.0925421314314, -433.1832621176727, 9.4301577382721, 627.3382983673364, -0.03200000151991844, -0.03200000151991844, 0.9760000463575125, 0.0, 0.0, 0.0, 0.0, 0.0, 1.740483920732868E9, 0.0, 2025-02-25 11:45:20.732
83.0, 901.5384133686312, -668.6324037280865, 15.346679468173534, 781.0014377967454, -0.03200000151991844, -0.03200000151991844, 0.9760000463575125, 0.0, 0.0, 0.0, 0.0, 0.0, 1.7404839207330153E9, 0.0, 2025-02-25 11:45:20.733
84.0, 931.558590312954, -598.0268324646167, 11.318807215895504, 829.8894100175239, -0.03200000151991844, -0.03200000151991844, 0.9760000463575125, 0.0, 0.0, 0.0, 0.0, 0.0, 1.7404839207333655E9, 0.0, 2025-02-25 11:45:20.733
84.0, 793.4010760998353, -364.941307626199, 9.291781439911574, 684.0389215955511, -0.03200000151991844, -0.03200000151991844, 0.9760000463575125, 0.0, 0.0, 0.0, 0.0, 0.0, 1.7404839207334075E9, 0.0, 2025-02-25 11:45:20.733
85.0, 745.9866244615987, -453.9284871718846, 13.147618294227868, 606.091926719062, -0.03200000151991844, -0.03200000151991844, 0.9760000463575125, 0.0, 0.0, 0.0, 0.0, 0.0, 1.7404839207639031E9, 0.0, 2025-02-25 11:45:20.763
85.0, 903.6252775439061, -688.2481789956801, 13.90681798523292, 751.9723343406804, -0.03200000151991844, -0.03200000151991844, 0.9760000463575125, 0.0, 0.0, 0.0, 0.0, 0.0, 1.7404839207639587E9, 0.0, 2025-02-25 11:45:20.763
86.0, 961.6909642559476, -605.9442006708123, 10.918637920636684, 817.3270860663615, -0.03200000151991844, -0.03200000151991844, 0.9760000463575125, 0.0, 0.0, 0.0, 0.0, 0.0, 1.7404839207640944E9, 0.0, 2025-02-25 11:45:20.764
86.0, 776.8894177954644, -386.8758208663203, 10.338953427504748, 650.5855164919049, -0.03200000151991844, -0.03200000151991844, 0.9760000463575125, 0.0, 0.0, 0.0, 0.0, 0.0, 1.7404839207646384E9, 0.0, 2025-02-25 11:45:20.764
87.0, 738.4993447503075, -454.7624848620035, 12.081746806856245, 586.3452549530193, -0.03200000151991844, -0.03200000151991844, 0.9760000463575125, 0.0, 0.0, 0.0, 0.0, 0.0, 1.7404839207647672E9, 0.0, 2025-02-25 11:45:20.764
87.0, 922.1714414241724, -668.602484528441, 12.351019603665918, 763.9549737987109, -0.03200000151991844, -0.03200000151991844, 0.9760000463575125, 0.0, 0.0, 0.0, 0.0, 0.0, 1.7404839207648044E9, 0.0, 2025-02-25 11:45:20.764
88.0, 930.5413375250064, -612.4628462935798, 12.190203905571252, 811.7695947322063, -0.03200000151991844, -0.03200000151991844, 0.9760000463575125, 0.0, 0.0, 0.0, 0.0, 0.0, 1.740483920764932E9, 0.0, 2025-02-25 11:45:20.764
88.0, 782.1252777334303, -854.0285942815244, 10.735382822807878, 674.2815226111561, -0.03200000151991844, -0.03200000151991844, 0.9760000463575125, 0.0, 0.0, 0.0, 0.0, 0.0, 1.7404839207649603E9, 0.0, 2025-02-25 11:45:20.764
89.0, 760.2880018921569, -916.7167973387986, 10.200577129144222, 619.5854857591912, -0.03200000151991844, -0.03200000151991844, 0.9760000463575125, 0.0, 0.0, 0.0, 0.0, 0.0, 1.7404839207667303E9, 0.0, 2025-02-25 11:45:20.766
89.0, 905.9327958165668, -679.1639620033093, 10.888718720991164, 759.5456317509525, -0.03200000151991844, -0.03200000151991844, 0.9760000463575125, 0.0, 0.0, 0.0, 0.0, 0.0, 1.7404839207667747E9, 0.0, 2025-02-25 11:45:20.766
90.0, 936.3456622562371, -606.598683163058, 7.979076555464417, 818.0862857573666, -0.03200000151991844, -0.03200000151991844, 0.9920000471174717, 0.0, 0.0, 0.0, 0.0, 0.0, 1.7404839207933464E9, 0.0, 2025-02-25 11:45:20.793
90.0, 766.7281096158549, -379.80740995006636, 11.401085014920682, 662.7588908476755, -0.03200000151991844, -0.03200000151991844, 0.9920000471174717, 0.0, 0.0, 0.0, 0.0, 0.0, 1.740483920793383E9, 0.0, 2025-02-25 11:45:20.793
91.0, 719.9831000696868, -466.6553667210974, 12.560454001184553, 593.2004915717989, -0.03200000151991844, -0.03200000151991844, 0.9920000471174717, 0.0, 0.0, 0.0, 0.0, 0.0, 1.7404839207934947E9, 0.0, 2025-02-25 11:45:20.793
91.0, 889.286501113791, -693.0202913391404, 10.447410526219755, 747.9669014881365, -0.03200000151991844, -0.03200000151991844, 0.9920000471174717, 0.0, 0.0, 0.0, 0.0, 0.0, 1.7404839207935157E9, 0.0, 2025-02-25 11:45:20.793
92.0, 910.2972590648569, -637.1835850006901, 11.419784514699131, 804.5141888181679, -0.03200000151991844, -0.03200000151991844, 0.9920000471174717, 0.0, 0.0, 0.0, 0.0, 0.0, 1.7404839208229003E9, 0.0, 2025-02-25 11:45:20.822
92.0, 714.2199142379686, -423.0032544382848, 11.819953809957951, 626.3995834784582, -0.03200000151991844, -0.03200000151991844, 0.9920000471174717, 0.0, 0.0, 0.0, 0.0, 0.0, 1.7404839208229663E9, 0.0, 2025-02-25 11:45:20.822
93.0, 702.3793909782544, -479.93575146375224, 11.352466315496713, 581.2664708131924, -0.03200000151991844, -0.03200000151991844, 0.9920000471174717, 0.0, 0.0, 0.0, 0.0, 0.0, 1.7404839208234365E9, 0.0, 2025-02-25 11:45:20.823
93.0, 862.4489790317602, -713.2531500994228, 12.044347807299346, 742.5178672526963, -0.03200000151991844, -0.03200000151991844, 0.9920000471174717, 0.0, 0.0, 0.0, 0.0, 0.0, 1.7404839208235695E9, 0.0, 2025-02-25 11:45:20.823
94.0, 871.5369359240867, -661.7210686099716, 10.611966124270111, 778.7462781234644, -0.03200000151991844, -0.03200000151991844, 0.9920000471174717, 0.0, 0.0, 0.0, 0.0, 0.0, 1.7404839208240604E9, 0.0, 2025-02-25 11:45:20.824
94.0, 725.7051470018923, -890.0026919553056, 10.746602522674948, 643.4086484769359, -0.03200000151991844, -0.03200000151991844, 0.9920000471174717, 0.0, 0.0, 0.0, 0.0, 0.0, 1.7404839208241029E9, 0.0, 2025-02-25 11:45:20.824
95.0, 707.2637003203854, -942.5520262327045, 12.30614080419764, 620.9318497432396, -0.03200000151991844, -0.03200000151991844, 0.9920000471174717, 0.0, 0.0, 0.0, 0.0, 0.0, 1.740483920824695E9, 0.0, 2025-02-25 11:45:20.824
95.0, 889.3575592129491, -1164.859159398824, 13.173797593917698, 783.8101026634686, -0.03200000151991844, -0.03200000151991844, 0.9920000471174717, 0.0, 0.0, 0.0, 0.0, 0.0, 1.7404839208247411E9, 0.0, 2025-02-25 11:45:20.824
96.0, 946.3424148377962, -1067.2814296549186, 10.537168125156313, 864.1693330113776, -0.03200000151991844, -0.03200000151991844, 0.9920000471174717, 0.0, 0.0, 0.0, 0.0, 0.0, 1.74048392085311E9, 0.0, 2025-02-25 11:45:20.853
96.0, 783.8905105125159, -833.2721495274454, 12.71004999941215, 716.2394602140412, -0.03200000151991844, -0.03200000151991844, 0.9920000471174717, 0.0, 0.0, 0.0, 0.0, 0.0, 1.740483920853163E9, 0.0, 2025-02-25 11:45:20.853
97.0, 767.3377133086324, -894.7561047989875, 9.84902653330937, 672.3928731335327, -0.03200000151991844, -0.03200000151991844, 0.9920000471174717, 0.0, 0.0, 0.0, 0.0, 0.0, 1.7404839208533947E9, 0.0, 2025-02-25 11:45:20.853
97.0, 943.8441616673954, -1116.1619220757857, 12.126625606324524, 824.1000448861159, -0.03200000151991844, -0.03200000151991844, 0.9920000471174717, 0.0, 0.0, 0.0, 0.0, 0.0, 1.7404839208534396E9, 0.0, 2025-02-25 11:45:20.853
98.0, 949.0014837062918, -1056.4058005837724, 13.645024988334626, 869.7455238453113, -0.03200000151991844, -0.03200000151991844, 0.9920000471174717, 0.0, 0.0, 0.0, 0.0, 0.0, 1.7404839208828251E9, 0.0, 2025-02-25 11:45:20.882
98.0, 776.7286020973697, -837.7301102746278, 10.993435919750482, 698.8751047197729, -0.03200000151991844, -0.03200000151991844, 0.9920000471174717, 0.0, 0.0, 0.0, 0.0, 0.0, 1.7404839208828676E9, 0.0, 2025-02-25 11:45:20.882
99.0, 759.768155798316, -894.6439078003168, 12.463216602336615, 655.8625153293833, -0.03200000151991844, -0.03200000151991844, 0.9920000471174717, 0.0, 0.0, 0.0, 0.0, 0.0, 1.7404839208832486E9, 0.0, 2025-02-25 11:45:20.883
99.0, 929.7148196347989, -1125.8520028609782, 11.748895710799843, 811.1151122399606, -0.03200000151991844, -0.03200000151991844, 0.9920000471174717, 0.0, 0.0, 0.0, 0.0, 0.0, 1.7404839208832848E9, 0.0, 2025-02-25 11:45:20.883
100.0, 943.0475629768334, -1083.2358428658918, 15.200823369901627, 832.2380671896972, -0.03200000151991844, -0.03200000151991844, 0.9920000471174717, 0.0, 0.0, 0.0, 0.0, 0.0, 1.740483920883947E9, 0.0, 2025-02-25 11:45:20.883
100.0, 777.0016147941351, -842.1768513219431, 6.288641775492579, 677.8493871688843, -0.03200000151991844, -0.03200000151991844, 0.9920000471174717, 0.0, 0.0, 0.0, 0.0, 0.0, 1.7404839208839755E9, 0.0, 2025-02-25 11:45:20.883
0.0, 257.1517810532823, 66.9591688066721, 16.305963806807995, 141.22423217678443, -0.03200000151991844, -0.03200000151991844, 0.9920000471174717, 0.0, 0.0, 0.0, 0.0, 0.0, 1.7404839208845592E9, 0.0, 2025-02-25 11:45:20.884
1.0, 428.24285427620634, -169.98967268597335, 11.818083859980106, 282.11187335755676, -0.03200000151991844, -0.01600000075995922, 0.9920000471174717, 0.0, 0.0, 0.0, 0.0, 0.0, 1.740483920913468E9, 0.0, 2025-02-25 11:45:20.913
1.0, 445.5959900706075, -113.25165045820177, 9.772358584217727, 329.66470129415393, -0.03200000151991844, -0.01600000075995922, 0.9920000471174717, 0.0, 0.0, 0.0, 0.0, 0.0, 1.7404839209135344E9, 0.0, 2025-02-25 11:45:20.913
2.0, 272.5751284705475, 121.10918026510626, 9.28243169002235, 167.7999612619169, -0.03200000151991844, -0.01600000075995922, 0.9920000471174717, 0.0, 0.0, 0.0, 0.0, 0.0, 1.740483920914046E9, 0.0, 2025-02-25 11:45:20.914
2.0, 264.84849516209215, 80.40410914737731, 8.598029998131096, 144.07403594302014, -0.03200000151991844, -0.01600000075995922, 0.9920000471174717, 0.0, 0.0, 0.0, 0.0, 0.0, 1.74048392091416E9, 0.0, 2025-02-25 11:45:20.914
3.0, 458.50986461760476, -132.6953903278336, 14.536991127766669, 306.9148898636922, -0.03200000151991844, -0.01600000075995922, 0.9920000471174717, 0.0, 0.0, 0.0, 0.0, 0.0, 1.7404839209144456E9, 0.0, 2025-02-25 11:45:20.914
3.0, 447.9820462423377, -96.20892636012286, 10.404401676729321, 330.14340848848224, -0.03200000151991844, -0.01600000075995922, 0.9920000471174717, 0.0, 0.0, 0.0, 0.0, 0.0, 1.7404839209144948E9, 0.0, 2025-02-25 11:45:20.914
4.0, 259.21994572877884, 114.7214311407879, 13.572096939198673, 155.70512480521575, -0.03200000151991844, -0.01600000075995922, 0.9920000471174717, 0.0, 0.0, 0.0, 0.0, 0.0, 1.7404839209434428E9, 0.0, 2025-02-25 11:45:20.943
4.0, 285.23468982055783, 79.12132346257567, 10.905548270791769, 138.8643553047441, -0.03200000151991844, -0.01600000075995922, 0.9920000471174717, 0.0, 0.0, 0.0, 0.0, 0.0, 1.740483920943494E9, 0.0, 2025-02-25 11:45:20.943
5.0, 438.7145741521381, -161.29814518895, 10.374482477083802, 282.3998456541449, -0.03200000151991844, -0.01600000075995922, 0.9920000471174717, 0.0, 0.0, 0.0, 0.0, 0.0, 1.7404839209436493E9, 0.0, 2025-02-25 11:45:20.943
5.0, 430.65508974762633, -113.31896865740418, 10.89806847088039, 300.7328352369368, -0.03200000151991844, -0.01600000075995922, 0.9920000471174717, 0.0, 0.0, 0.0, 0.0, 0.0, 1.740483920943694E9, 0.0, 2025-02-25 11:45:20.943
6.0, 263.3899341793731, 122.15635225269943, 8.339976901188493, 145.7869101227261, -0.03200000151991844, -0.01600000075995922, 0.9920000471174717, 0.0, 0.0, 0.0, 0.0, 0.0, 1.7404839209439292E9, 0.0, 2025-02-25 11:45:20.943
6.0, 246.9343743743375, 51.363785991445184, 11.365555965341628, 106.53666008776054, -0.03200000151991844, -0.01600000075995922, 0.9920000471174717, 0.0, 0.0, 0.0, 0.0, 0.0, 1.7404839209440331E9, 0.0, 2025-02-25 11:45:20.944
7.0, 418.23114209482446, -172.25979195907712, 15.658961114473641, 261.81169639807194, -0.03200000151991844, -0.01600000075995922, 0.9920000471174717, 0.0, 0.0, 0.0, 0.0, 0.0, 1.7404839209727564E9, 0.0, 2025-02-25 11:45:20.972
7.0, 405.8333737417124, -127.61286628805101, 12.738099249079823, 283.4694570414722, -0.03200000151991844, -0.01600000075995922, 0.9920000471174717, 0.0, 0.0, 0.0, 0.0, 0.0, 1.740483920972812E9, 0.0, 2025-02-25 11:45:20.972
8.0, 225.78524012491107, 86.43656777590513, 7.562077710404992, 106.26738729095086, -0.03200000151991844, -0.01600000075995922, 0.9920000471174717, 0.0, 0.0, 0.0, 0.0, 0.0, 1.7404839209732416E9, 0.0, 2025-02-25 11:45:20.973
8.0, 240.97671374492347, 53.10657937079668, 13.568357039242983, 91.28908796841279, -0.03200000151991844, -0.01600000075995922, 0.9920000471174717, 0.0, 0.0, 0.0, 0.0, 0.0, 1.7404839209732752E9, 0.0, 2025-02-25 11:45:20.973
9.0, 429.57051876047626, -178.1613540891558, 14.379915329627693, 255.21451287623495, -0.03200000151991844, -0.01600000075995922, 0.9920000471174717, 0.0, 0.0, 0.0, 0.0, 0.0, 1.7404839209738839E9, 0.0, 2025-02-25 11:45:20.973
9.0, 403.3650397709571, -151.76514020189643, 12.375328953377903, 250.4910192321986, -0.03200000151991844, -0.01600000075995922, 0.9920000471174717, 0.0, 0.0, 0.0, 0.0, 0.0, 1.7404839209739144E9, 0.0, 2025-02-25 11:45:20.973
10.0, 241.34696384053677, 81.8514504302293, 10.651235073804855, 105.22395520331338, -0.03200000151991844, -0.01600000075995922, 0.9920000471174717, 0.0, 0.0, 0.0, 0.0, 0.0, 1.740483921003714E9, 0.0, 2025-02-25 11:45:21.003
10.0, 257.88854134455323, 52.04444778338075, 14.383655229583383, 105.0668794051744, -0.03200000151991844, -0.01600000075995922, 0.9920000471174717, 0.0, 0.0, 0.0, 0.0, 0.0, 1.740483921003767E9, 0.0, 2025-02-25 11:45:21.003
11.0, 416.86233871104196, 297.02846433082595, 15.644001514650881, 258.0867560422048, -0.03200000151991844, -0.01600000075995922, 0.9920000471174717, 0.0, 0.0, 0.0, 0.0, 0.0, 1.740483921004008E9, 0.0, 2025-02-25 11:45:21.004
11.0, 402.67315827915445, 340.1008921205066, 15.449526716955006, 268.6744128167629, -0.03200000151991844, -0.01600000075995922, 0.9920000471174717, 0.0, 0.0, 0.0, 0.0, 0.0, 1.7404839210040524E9, 0.0, 2025-02-25 11:45:21.004
12.0, 239.7051477599889, 96.16778746061027, 10.355782977305353, 133.44524026894942, -0.01600000075995922, -0.01600000075995922, 0.9920000471174717, 0.0, 0.0, 0.0, 0.0, 0.0, 1.7404839210041761E9, 0.0, 2025-02-25 11:45:21.004
12.0, 236.6346898963675, 46.20272405259311, 10.980346269905567, 103.95238921837881, -0.01600000075995922, -0.01600000075995922, 0.9920000471174717, 0.0, 0.0, 0.0, 0.0, 0.0, 1.7404839210042057E9, 0.0, 2025-02-25 11:45:21.004
13.0, 436.60901047708467, -183.63656762428582, 14.013405133970082, 275.0995609406382, -0.01600000075995922, -0.01600000075995922, 0.9920000471174717, 0.0, 0.0, 0.0, 0.0, 0.0, 1.7404839210330048E9, 0.0, 2025-02-25 11:45:21.033
13.0, 416.4359901160933, -140.7361752325669, 8.48209309950471, 287.9835162879899, -0.01600000075995922, -0.01600000075995922, 0.9920000471174717, 0.0, 0.0, 0.0, 0.0, 0.0, 1.7404839210330596E9, 0.0, 2025-02-25 11:45:21.033
14.0, 231.49606735724956, 76.72030769102275, 8.796244695782661, 111.12925723334774, -0.01600000075995922, -0.01600000075995922, 0.9920000471174717, 0.0, 0.0, 0.0, 0.0, 0.0, 1.7404839210333543E9, 0.0, 2025-02-25 11:45:21.033
14.0, 262.91870678495616, 61.03516727685928, 12.809157348237932, 121.80667160684243, -0.01600000075995922, -0.01600000075995922, 0.9920000471174717, 0.0, 0.0, 0.0, 0.0, 0.0, 1.7404839210333917E9, 0.0, 2025-02-25 11:45:21.033
15.0, 420.998668062035, 300.51405108952895, 11.67970756161958, 271.69625198096037, -0.01600000075995922, -0.01600000075995922, 0.9920000471174717, 0.0, 0.0, 0.0, 0.0, 0.0, 1.7404839210338464E9, 0.0, 2025-02-25 11:45:21.033
15.0, 382.91526681324467, 319.026555870194, 11.017745269462466, 253.46049979701638, -0.01600000075995922, -0.01600000075995922, 0.9920000471174717, 0.0, 0.0, 0.0, 0.0, 0.0, 1.7404839210338795E9, 0.0, 2025-02-25 11:45:21.033
16.0, 224.83530553616583, 79.4803538583219, 12.966233146376908, 108.6646631625481, -0.01600000075995922, -0.01600000075995922, 0.9920000471174717, 0.0, 0.0, 0.0, 0.0, 0.0, 1.7404839210628831E9, 0.0, 2025-02-25 11:45:21.062
16.0, 243.10471681971103, 45.75393605791032, 7.939807605929673, 110.59445153968409, -0.01600000075995922, -0.01600000075995922, 0.9920000471174717, 0.0, 0.0, 0.0, 0.0, 0.0, 1.7404839210629308E9, 0.0, 2025-02-25 11:45:21.062
17.0, 396.9810305465944, 282.7046475005336, 14.133081932552159, 246.97551327385008, -0.01600000075995922, -0.01600000075995922, 0.9920000471174717, 0.0, 0.0, 0.0, 0.0, 0.0, 1.7404839210632596E9, 0.0, 2025-02-25 11:45:21.063
17.0, 354.70146154752, 311.99554395349696, 12.322970353998244, 254.2309191878885, -0.01600000075995922, -0.01600000075995922, 0.9920000471174717, 0.0, 0.0, 0.0, 0.0, 0.0, 1.740483921063301E9, 0.0, 2025-02-25 11:45:21.063
18.0, 188.4647784670815, 553.4322653929703, 9.783578284084797, 98.34627918479964, -0.01600000075995922, -0.01600000075995922, 0.9920000471174717, 0.0, 0.0, 0.0, 0.0, 0.0, 1.740483921063876E9, 0.0, 2025-02-25 11:45:21.063
18.0, 226.87729091197252, 532.3953281422146, 17.162400896660984, 99.22141577443108, -0.01600000075995922, -0.01600000075995922, 0.9920000471174717, 0.0, 0.0, 0.0, 0.0, 0.0, 1.740483921063913E9, 0.0, 2025-02-25 11:45:21.063
19.0, 395.8328812601976, 322.40742543013766, 14.45471332874149, 253.03789110202342, -0.01600000075995922, -0.01600000075995922, 0.9920000471174717, 0.0, 0.0, 0.0, 0.0, 0.0, 1.7404839210929272E9, 0.0, 2025-02-25 11:45:21.092
19.0, 355.3634238396771, 362.58517065411434, 11.578730262815952, 238.46724087465554, -0.01600000075995922, -0.01600000075995922, 0.9920000471174717, 0.0, 0.0, 0.0, 0.0, 0.0, 1.740483921093046E9, 0.0, 2025-02-25 11:45:21.093
20.0, 189.4558519553393, 150.09340492170304, 10.83075027167797, 85.40996523806825, -0.01600000075995922, -0.01600000075995922, 0.9920000471174717, 0.0, 0.0, 0.0, 0.0, 0.0, 1.7404839210933874E9, 0.0, 2025-02-25 11:45:21.093
20.0, 225.15693693235517, 149.79795282520354, 12.218253155238926, 81.87949967989698, -0.01600000075995922, -0.01600000075995922, 0.9920000471174717, 0.0, 0.0, 0.0, 0.0, 0.0, 1.7404839210934265E9, 0.0, 2025-02-25 11:45:21.093
21.0, 392.511850099545, -71.8846170483157, 9.978053081780672, 223.63105775043368, -0.01600000075995922, -0.01600000075995922, 0.9920000471174717, 0.0, 0.0, 0.0, 0.0, 0.0, 1.740483921094297E9, 0.0, 2025-02-25 11:45:21.094
21.0, 368.486732784193, -16.661254302598536, 12.655821450054646, 223.46650215238333, -0.01600000075995922, -0.01600000075995922, 0.9920000471174717, 0.0, 0.0, 0.0, 0.0, 0.0, 1.7404839210943432E9, 0.0, 2025-02-25 11:45:21.094
22.0, 198.4652709485963, 216.7309423321858, 10.733512872830033, 52.1921738316305, -0.03200000151991844, -0.01600000075995922, 0.9920000471174717, 0.0, 0.0, 0.0, 0.0, 0.0, 1.740483921122984E9, 0.0, 2025-02-25 11:45:21.122
22.0, 204.45659067761153, 185.77953029889613, 13.598276238888502, 53.28048471873626, -0.03200000151991844, -0.01600000075995922, 0.9920000471174717, 0.0, 0.0, 0.0, 0.0, 0.0, 1.740483921123041E9, 0.0, 2025-02-25 11:45:21.123
23.0, 397.85242723627016, -37.71689105313271, 12.730619449168444, 238.9235086692497, -0.03200000151991844, -0.01600000075995922, 0.9920000471174717, 0.0, 0.0, 0.0, 0.0, 0.0, 1.7404839211233308E9, 0.0, 2025-02-25 11:45:21.123
23.0, 372.9072945318185, -31.157106530852616, 11.814343960024416, 213.37251217197627, -0.03200000151991844, -0.01600000075995922, 0.9920000471174717, 0.0, 0.0, 0.0, 0.0, 0.0, 1.740483921123368E9, 0.0, 2025-02-25 11:45:21.123
24.0, 172.49540565628558, 168.44509400427341, 12.109796056523919, 41.99720655241981, -0.03200000151991844, -0.01600000075995922, 0.9920000471174717, 0.0, 0.0, 0.0, 0.0, 0.0, 1.7404839211239502E9, 0.0, 2025-02-25 11:45:21.123
24.0, 233.62407043203712, 164.7089339485392, 15.917014211416245, 81.22501718765125, -0.03200000151991844, -0.01600000075995922, 0.9920000471174717, 0.0, 0.0, 0.0, 0.0, 0.0, 1.7404839211239824E9, 0.0, 2025-02-25 11:45:21.123
25.0, 401.14727909723297, 405.2462094486691, 11.597429762594402, 236.36541709955782, -0.03200000151991844, -0.01600000075995922, 0.9920000471174717, 0.0, 0.0, 0.0, 0.0, 0.0, 1.740483921153422E9, 0.0, 2025-02-25 11:45:21.153
25.0, 354.5144665497355, 411.53298127418384, 14.742685625329614, 207.66916473954916, -0.03200000151991844, -0.01600000075995922, 0.9920000471174717, 0.0, 0.0, 0.0, 0.0, 0.0, 1.7404839211535146E9, 0.0, 2025-02-25 11:45:21.153
26.0, 198.1324198525399, 167.8579297112301, 10.84196997154504, 69.26855702931061, -0.03200000151991844, -0.01600000075995922, 0.9920000471174717, 0.0, 0.0, 0.0, 0.0, 0.0, 1.740483921153906E9, 0.0, 2025-02-25 11:45:21.153
26.0, 251.20534012373537, 163.56826446205378, 9.877075782977045, 104.2141822152771, -0.03200000151991844, -0.01600000075995922, 0.9920000471174717, 0.0, 0.0, 0.0, 0.0, 0.0, 1.740483921153967E9, 0.0, 2025-02-25 11:45:21.153
27.0, 431.38437023898587, -72.43064244184643, 11.803124260157347, 261.06745630688965, -0.03200000151991844, -0.01600000075995922, 0.9920000471174717, 0.0, 0.0, 0.0, 0.0, 0.0, 1.740483921154199E9, 0.0, 2025-02-25 11:45:21.154
27.0, 393.18503209156916, -56.67818382848054, 12.655821450054646, 247.16624817159027, -0.03200000151991844, -0.01600000075995922, 0.9920000471174717, 0.0, 0.0, 0.0, 0.0, 0.0, 1.7404839211542451E9, 0.0, 2025-02-25 11:45:21.154
28.0, 230.83410506509244, 181.24303165264428, 14.10316273290664, 93.15529804630205, -0.03200000151991844, -0.01600000075995922, 0.9920000471174717, 0.0, 0.0, 0.0, 0.0, 0.0, 1.740483921183244E9, 0.0, 2025-02-25 11:45:21.183
28.0, 282.49334315303713, 173.32940334640443, 14.129342032596469, 129.44354731636122, -0.03200000151991844, -0.01600000075995922, 0.9920000471174717, 0.0, 0.0, 0.0, 0.0, 0.0, 1.7404839211833153E9, 0.0, 2025-02-25 11:45:21.183
29.0, 455.7498184503056, 417.71129600098357, 9.899515182711184, 288.368725983426, -0.03200000151991844, -0.01600000075995922, 0.9920000471174717, 0.0, 0.0, 0.0, 0.0, 0.0, 1.740483921183466E9, 0.0, 2025-02-25 11:45:21.183
29.0, 377.32037647953257, 420.16093047196046, 12.90265484713018, 258.9431931320578, -0.03200000151991844, -0.01600000075995922, 0.9920000471174717, 0.0, 0.0, 0.0, 0.0, 0.0, 1.7404839211835697E9, 0.0, 2025-02-25 11:45:21.183
30.0, 204.37057297863066, 661.4555357131176, 8.646648697555065, 106.50300098815933, -0.03200000151991844, -0.01600000075995922, 0.9920000471174717, 0.0, 0.0, 0.0, 0.0, 0.0, 1.7404839211839669E9, 0.0, 2025-02-25 11:45:21.183
30.0, 279.0488952938467, 658.6805299459957, 7.65557520929724, 144.54526333743706, -0.03200000151991844, -0.01600000075995922, 0.9920000471174717, 0.0, 0.0, 0.0, 0.0, 0.0, 1.7404839211840155E9, 0.0, 2025-02-25 11:45:21.184
31.0, 443.95417399005964, 417.86837179912254, 15.385948417708278, 301.5892723267898, -0.03200000151991844, -0.03200000151991844, 0.9920000471174717, 0.0, 0.0, 0.0, 0.0, 0.0, 1.740483921213158E9, 0.0, 2025-02-25 11:45:21.213
31.0, 376.2769443918951, 426.3355052988045, 12.412727952934802, 269.22417811024934, -0.03200000151991844, -0.03200000151991844, 0.9920000471174717, 0.0, 0.0, 0.0, 0.0, 0.0, 1.740483921213251E9, 0.0, 2025-02-25 11:45:21.213
32.0, 212.14582498650998, 660.2213687277399, 8.781285095959902, 116.4062560708262, -0.01600000075995922, -0.03200000151991844, 0.9920000471174717, 0.0, 0.0, 0.0, 0.0, 0.0, 1.7404839212137012E9, 0.0, 2025-02-25 11:45:21.213
32.0, 280.85526697244495, 664.8738042726181, 14.533251227810979, 156.7971755922772, -0.01600000075995922, -0.03200000151991844, 0.9920000471174717, 0.0, 0.0, 0.0, 0.0, 0.0, 1.7404839212137551E9, 0.0, 2025-02-25 11:45:21.213
33.0, 449.21247332775965, 909.5960278231651, 12.999892245978117, 305.0748590854928, -0.01600000075995922, -0.03200000151991844, 0.9920000471174717, 0.0, 0.0, 0.0, 0.0, 0.0, 1.740483921213931E9, 0.0, 2025-02-25 11:45:21.213
33.0, 362.83948385110125, 896.921506873332, 10.381962276995182, 248.1872408594936, -0.01600000075995922, -0.03200000151991844, 0.9920000471174717, 0.0, 0.0, 0.0, 0.0, 0.0, 1.7404839212139883E9, 0.0, 2025-02-25 11:45:21.213
34.0, 199.55358183570206, 1139.240844702348, 11.459053464233875, 95.58623301750049, -0.01600000075995922, -0.03200000151991844, 0.9920000471174717, 0.0, 0.0, 0.0, 0.0, 0.0, 1.740483921242947E9, 0.0, 2025-02-25 11:45:21.242
34.0, 263.47595187835395, 1141.7951963720843, 15.408387817442417, 140.39023448666558, -0.01600000075995922, -0.03200000151991844, 0.9920000471174717, 0.0, 0.0, 0.0, 0.0, 0.0, 1.7404839212430813E9, 0.0, 2025-02-25 11:45:21.243
35.0, 425.2210151120089, 1379.6921025034972, 13.66559443809092, 290.3994916593656, -0.01600000075995922, -0.03200000151991844, 0.9920000471174717, 0.0, 0.0, 0.0, 0.0, 0.0, 1.7404839212433984E9, 0.0, 2025-02-25 11:45:21.243
35.0, 343.8146127765067, 1364.859659279231, 13.070950345136225, 233.0780450385064, -0.01600000075995922, -0.03200000151991844, 0.9920000471174717, 0.0, 0.0, 0.0, 0.0, 0.0, 1.7404839212434545E9, 0.0, 2025-02-25 11:45:21.243
36.0, 198.96267764270306, 1125.6051694639027, 13.875028835609555, 87.53796831285581, -0.01600000075995922, -0.03200000151991844, 0.9920000471174717, 0.0, 0.0, 0.0, 0.0, 0.0, 1.7404839212439864E9, 0.0, 2025-02-25 11:45:21.243
36.0, 268.7679103156552, 1129.9172741128132, 9.521785287186503, 129.90729491086677, -0.01600000075995922, -0.03200000151991844, 0.9920000471174717, 0.0, 0.0, 0.0, 0.0, 0.0, 1.7404839212440305E9, 0.0, 2025-02-25 11:45:21.244
37.0, 441.0894106240012, 1365.5777200707234, 13.71421313751489, 281.6219464633614, -0.01600000075995922, -0.03200000151991844, 0.9920000471174717, 0.0, 0.0, 0.0, 0.0, 0.0, 1.7404839212731268E9, 0.0, 2025-02-25 11:45:21.273
37.0, 370.24822566332296, 1364.1939570871182, 14.88480182364583, 230.16466297302395, -0.01600000075995922, -0.03200000151991844, 0.9920000471174717, 0.0, 0.0, 0.0, 0.0, 0.0, 1.7404839212731864E9, 0.0, 2025-02-25 11:45:21.273
38.0, 192.8703806148842, 1598.9175581061281, 9.215113490819931, 66.46363206254318, -0.01600000075995922, -0.03200000151991844, 0.9920000471174717, 0.0, 0.0, 0.0, 0.0, 0.0, 1.7404839212733028E9, 0.0, 2025-02-25 11:45:21.273
38.0, 284.16133853327483, 1611.6332179554738, 8.138022303581238, 135.3451094464399, -0.01600000075995922, -0.03200000151991844, 0.9920000471174717, 0.0, 0.0, 0.0, 0.0, 0.0, 1.7404839212733395E9, 0.0, 2025-02-25 11:45:21.273
39.0, 449.10401622904465, 1837.7157801268622, 13.961046534590423, 270.59298149403185, -0.01600000075995922, -0.03200000151991844, 0.9920000471174717, 0.0, 0.0, 0.0, 0.0, 0.0, 1.740483921273847E9, 0.0, 2025-02-25 11:45:21.273
39.0, 355.3372445399873, 1821.9595816135406, 8.4858329994604, 215.75856834370643, -0.01600000075995922, -0.03200000151991844, 0.9920000471174717, 0.0, 0.0, 0.0, 0.0, 0.0, 1.7404839212738953E9, 0.0, 2025-02-25 11:45:21.273
40.0, 201.29637521505356, 1579.802929432597, 13.224286243319511, 64.234651688952, -0.01600000075995922, -0.03200000151991844, 0.9920000471174717, 0.0, 0.0, 0.0, 0.0, 0.0, 1.7404839213031557E9, 0.0, 2025-02-25 11:45:21.303
40.0, 271.1689260872081, 1585.7456304621883, 9.360969589091837, 116.1856019734405, -0.01600000075995922, -0.03200000151991844, 0.9920000471174717, 0.0, 0.0, 0.0, 0.0, 0.0, 1.7404839213032074E9, 0.0, 2025-02-25 11:45:21.303
41.0, 451.4825926008634, 1830.3818363137543, 11.26083876658231, 270.59672139398754, -0.01600000075995922, -0.03200000151991844, 0.9920000471174717, 0.0, 0.0, 0.0, 0.0, 0.0, 1.740483921303408E9, 0.0, 2025-02-25 11:45:21.303
41.0, 357.861677010078, 1811.9628290319815, 10.744732572697103, 204.69594427477568, -0.01600000075995922, -0.03200000151991844, 0.9920000471174717, 0.0, 0.0, 0.0, 0.0, 0.0, 1.7404839213034532E9, 0.0, 2025-02-25 11:45:21.303
42.0, 180.51749106124043, 1574.0434835008346, 9.424547888338566, 56.47061938093975, -0.01600000075995922, -0.03200000151991844, 0.9920000471174717, 0.0, 0.0, 0.0, 0.0, 0.0, 1.7404839213038545E9, 0.0, 2025-02-25 11:45:21.303
42.0, 279.47898378875107, 1598.1321791154332, 15.191473620012403, 140.83902248134837, -0.01600000075995922, -0.03200000151991844, 0.9920000471174717, 0.0, 0.0, 0.0, 0.0, 0.0, 1.7404839213038883E9, 0.0, 2025-02-25 11:45:21.303
43.0, 436.43323517916724, 1830.6810283102095, 14.151781432330608, 285.2459095204249, -0.01600000075995922, -0.03200000151991844, 0.9920000471174717, 0.0, 0.0, 0.0, 0.0, 0.0, 1.7404839213328428E9, 0.0, 2025-02-25 11:45:21.332
43.0, 335.38113837642595, 1817.1238909708336, 12.87647554744035, 217.51632132288069, -0.01600000075995922, -0.03200000151991844, 0.9920000471174717, 0.0, 0.0, 0.0, 0.0, 0.0, 1.740483921332906E9, 0.0, 2025-02-25 11:45:21.332
44.0, 161.83669078256935, 1574.9634988899343, 10.45676027610898, 62.69007300725207, -0.01600000075995922, -0.03200000151991844, 0.9920000471174717, 0.0, 0.0, 0.0, 0.0, 0.0, 1.7404839213332372E9, 0.0, 2025-02-25 11:45:21.333
44.0, 263.053343183361, 1594.0257689640857, 13.613235838711262, 139.6422544955276, -0.01600000075995922, -0.03200000151991844, 0.9920000471174717, 0.0, 0.0, 0.0, 0.0, 0.0, 1.7404839213332791E9, 0.0, 2025-02-25 11:45:21.333
45.0, 440.7490797280334, 1353.84939380968, 12.88021544739604, 294.9509499054402, -0.01600000075995922, -0.03200000151991844, 0.9920000471174717, 0.0, 0.0, 0.0, 0.0, 0.0, 1.7404839213338332E9, 0.0, 2025-02-25 11:45:21.333
45.0, 342.30743309436366, 1319.704107214231, 12.390288553200662, 210.66482460405678, -0.01600000075995922, -0.03200000151991844, 0.9920000471174717, 0.0, 0.0, 0.0, 0.0, 0.0, 1.7404839213338733E9, 0.0, 2025-02-25 11:45:21.333
46.0, 175.782777717337, 1086.8336266232654, 11.724586361087859, 65.52491717366502, -0.01600000075995922, -0.03200000151991844, 0.9920000471174717, 0.0, 0.0, 0.0, 0.0, 0.0, 1.7404839213632867E9, 0.0, 2025-02-25 11:45:21.363
46.0, 265.790949950926, 1108.4427685672417, 15.879615211859345, 146.2319582174532, -0.01600000075995922, -0.03200000151991844, 0.9920000471174717, 0.0, 0.0, 0.0, 0.0, 0.0, 1.7404839213635583E9, 0.0, 2025-02-25 11:45:21.363
47.0, 435.2289873934351, 865.865377641283, 8.85234319511801, 295.9981218930334, -0.01600000075995922, -0.03200000151991844, 0.9920000471174717, 0.0, 0.0, 0.0, 0.0, 0.0, 1.7404839213636053E9, 0.0, 2025-02-25 11:45:21.363
47.0, 339.4838086278178, 849.7875477317721, 12.180854155682027, 220.68401658535004, -0.01600000075995922, -0.03200000151991844, 0.9920000471174717, 0.0, 0.0, 0.0, 0.0, 0.0, 1.7404839213636365E9, 0.0, 2025-02-25 11:45:21.363
48.0, 145.24649457912892, 1081.5042691864073, 12.44638705253601, 66.01858396781608, -0.01600000075995922, -0.03200000151991844, 0.9920000471174717, 0.0, 0.0, 0.0, 0.0, 0.0, 1.7404839213641057E9, 0.0, 2025-02-25 11:45:21.364
48.0, 267.29064983315766, 1121.162168316543, 11.395475164987147, 155.81732180388644, -0.01600000075995922, -0.03200000151991844, 0.9920000471174717, 0.0, 0.0, 0.0, 0.0, 0.0, 1.740483921364145E9, 0.0, 2025-02-25 11:45:21.364
49.0, 435.53939908975735, 1358.4644303550012, 11.69840706139803, 311.30927231162786, -0.01600000075995922, -0.03200000151991844, 0.9920000471174717, 0.0, 0.0, 0.0, 0.0, 0.0, 1.7404839213942833E9, 0.0, 2025-02-25 11:45:21.394
49.0, 321.55472824024037, 1335.841775523033, 10.621315874159336, 231.1482566613704, -0.01600000075995922, -0.03200000151991844, 0.9920000471174717, 0.0, 0.0, 0.0, 0.0, 0.0, 1.740483921394343E9, 0.0, 2025-02-25 11:45:21.394
50.0, 161.5262790862471, 1101.142483853735, 9.798537883907557, 88.03537500696257, -0.01600000075995922, -0.03200000151991844, 0.9920000471174717, 0.0, 0.0, 0.0, 0.0, 0.0, 1.740483921394725E9, 0.0, 2025-02-25 11:45:21.394
50.0, 270.00207730103284, 1128.5260313292965, 11.328156965784729, 168.8022544500418, -0.01600000075995922, -0.03200000151991844, 0.9920000471174717, 0.0, 0.0, 0.0, 0.0, 0.0, 1.7404839213947573E9, 0.0, 2025-02-25 11:45:21.394
51.0, 457.03260413510725, 885.0473245140165, 17.28581759519875, 327.61897601839155, -0.01600000075995922, -0.03200000151991844, 0.9920000471174717, 0.0, 0.0, 0.0, 0.0, 0.0, 1.74048392139488E9, 0.0, 2025-02-25 11:45:21.394
51.0, 341.12936460832134, 840.2994215441868, 9.749919184483588, 244.02473220881075, -0.01600000075995922, -0.03200000151991844, 0.9920000471174717, 0.0, 0.0, 0.0, 0.0, 0.0, 1.7404839213949037E9, 0.0, 2025-02-25 11:45:21.394
52.0, 168.8938819989562, 1081.2611756892875, 13.153228144161403, 87.04804141866043, -0.03200000151991844, -0.03200000151991844, 0.9920000471174717, 0.0, 0.0, 0.0, 0.0, 0.0, 1.7404839214247136E9, 0.0, 2025-02-25 11:45:21.424
52.0, 313.0371060911566, 1145.5463160276413, 8.373636000789702, 189.86911090044305, -0.03200000151991844, -0.03200000151991844, 0.9920000471174717, 0.0, 0.0, 0.0, 0.0, 0.0, 1.7404839214247634E9, 0.0, 2025-02-25 11:45:21.424
53.0, 460.5032312939875, 1376.8161194375716, 10.288464778102934, 342.02881054766476, -0.03200000151991844, -0.03200000151991844, 0.9920000471174717, 0.0, 0.0, 0.0, 0.0, 0.0, 1.7404839214250786E9, 0.0, 2025-02-25 11:45:21.425
53.0, 363.8305573393591, 1346.7548035937361, 13.856329335831106, 252.94813350308686, -0.03200000151991844, -0.03200000151991844, 0.9920000471174717, 0.0, 0.0, 0.0, 0.0, 0.0, 1.7404839214251328E9, 0.0, 2025-02-25 11:45:21.425
54.0, 194.0970678003505, 1589.029262623284, 13.422500940971076, 94.10897253500298, -0.03200000151991844, -0.03200000151991844, 0.9920000471174717, 0.0, 0.0, 0.0, 0.0, 0.0, 1.7404839214253411E9, 0.0, 2025-02-25 11:45:21.425
54.0, 290.41819115914404, 1613.910817028489, 11.829303559847176, 179.8050401196815, -0.03200000151991844, -0.03200000151991844, 0.9920000471174717, 0.0, 0.0, 0.0, 0.0, 0.0, 1.7404839214253762E9, 0.0, 2025-02-25 11:45:21.425
55.0, 476.2070712079294, 1376.86099823704, 12.723139649257064, 344.6542203165591, -0.03200000151991844, -0.03200000151991844, 0.9920000471174717, 0.0, 0.0, 0.0, 0.0, 0.0, 1.740483921453222E9, 0.0, 2025-02-25 11:45:21.453
55.0, 341.1031853086315, 1314.9806135701947, 9.125355891883373, 226.5893186153844, -0.03200000151991844, -0.03200000151991844, 0.9920000471174717, 0.0, 0.0, 0.0, 0.0, 0.0, 1.740483921453263E9, 0.0, 2025-02-25 11:45:21.453
56.0, 169.72787968907505, 1077.0126493396237, 15.457006516866386, 69.03294333210215, -0.03200000151991844, -0.03200000151991844, 0.9920000471174717, 0.0, 0.0, 0.0, 0.0, 0.0, 1.7404839214534957E9, 0.0, 2025-02-25 11:45:21.453
56.0, 297.437983375974, 1111.5431456305087, 13.639415138401091, 166.49099627742544, -0.03200000151991844, -0.03200000151991844, 0.9920000471174717, 0.0, 0.0, 0.0, 0.0, 0.0, 1.7404839214535203E9, 0.0, 2025-02-25 11:45:21.453
57.0, 466.008364028763, 1349.3428143630736, 10.550257775001228, 311.6757825072855, -0.03200000151991844, -0.03200000151991844, 0.9920000471174717, 0.0, 0.0, 0.0, 0.0, 0.0, 1.740483921454259E9, 0.0, 2025-02-25 11:45:21.454
57.0, 352.1097108782269, 1312.3664235011674, 14.652928026393056, 213.8399996664375, -0.03200000151991844, -0.03200000151991844, 0.9920000471174717, 0.0, 0.0, 0.0, 0.0, 0.0, 1.7404839214543653E9, 0.0, 2025-02-25 11:45:21.454
58.0, 154.33819137141109, 1536.0386201511137, 15.109195820987225, 42.84242394240573, -0.03200000151991844, -0.03200000151991844, 0.9920000471174717, 0.0, 0.0, 0.0, 0.0, 0.0, 1.7404839214828427E9, 0.0, 2025-02-25 11:45:21.482
58.0, 299.00874135736376, 1603.6896704495884, 16.05165060982108, 153.69305862905458, -0.03200000151991844, -0.03200000151991844, 0.9920000471174717, 0.0, 0.0, 0.0, 0.0, 0.0, 1.7404839214828863E9, 0.0, 2025-02-25 11:45:21.482
59.0, 459.5009381058626, 1839.563290704973, 14.361215829849243, 311.8889568047598, -0.03200000151991844, -0.03200000151991844, 0.9920000471174717, 0.0, 0.0, 0.0, 0.0, 0.0, 1.7404839214832573E9, 0.0, 2025-02-25 11:45:21.483
59.0, 339.2481949306093, 1787.111193826422, 15.913274311460555, 203.06534789409488, -0.03200000151991844, -0.03200000151991844, 0.9920000471174717, 0.0, 0.0, 0.0, 0.0, 0.0, 1.7404839214833267E9, 0.0, 2025-02-25 11:45:21.483
60.0, 147.26978045515716, 2016.6587733067572, 9.046817992813885, 23.92600996652618, -0.03200000151991844, -0.03200000151991844, 0.9920000471174717, 0.0, 0.0, 0.0, 0.0, 0.0, 1.7404839214839664E9, 0.0, 2025-02-25 11:45:21.483
60.0, 294.82753320690244, 2074.5599044207484, 9.585363586433232, 141.99465156765655, -0.03200000151991844, -0.03200000151991844, 0.9920000471174717, 0.0, 0.0, 0.0, 0.0, 0.0, 1.7404839214840066E9, 0.0, 2025-02-25 11:45:21.484
61.0, 472.7925425483845, 1837.2557724323124, 11.339376665651798, 306.9261095635593, -0.03200000151991844, -0.03200000151991844, 0.9920000471174717, 0.0, 0.0, 0.0, 0.0, 0.0, 1.740483921513434E9, 0.0, 2025-02-25 11:45:21.513
61.0, 334.3601456885226, 1788.07608801499, 9.783578284084797, 184.50048451405019, -0.03200000151991844, -0.03200000151991844, 0.9920000471174717, 0.0, 0.0, 0.0, 0.0, 0.0, 1.740483921513519E9, 0.0, 2025-02-25 11:45:21.513
62.0, 164.64161574933678, 1549.8837297870778, 7.300284713506699, 37.808518602047116, -0.03200000151991844, -0.03200000151991844, 0.9920000471174717, 0.0, 0.0, 0.0, 0.0, 0.0, 1.740483921514255E9, 0.0, 2025-02-25 11:45:21.514
62.0, 299.2219156548381, 1596.9391510295682, 10.49041937571019, 150.25609056977555, -0.03200000151991844, -0.03200000151991844, 0.9920000471174717, 0.0, 0.0, 0.0, 0.0, 0.0, 1.7404839215143096E9, 0.0, 2025-02-25 11:45:21.514
63.0, 478.6230465793051, 1840.5618439931422, 14.791304324753582, 302.94311611074954, -0.03200000151991844, -0.03200000151991844, 0.9920000471174717, 0.0, 0.0, 0.0, 0.0, 0.0, 1.7404839215145028E9, 0.0, 2025-02-25 11:45:21.514
63.0, 348.2276947242208, 1796.7526559121907, 13.209326643496752, 205.52620206493884, -0.03200000151991844, -0.03200000151991844, 0.9920000471174717, 0.0, 0.0, 0.0, 0.0, 0.0, 1.740483921514547E9, 0.0, 2025-02-25 11:45:21.514
64.0, 162.23312017787248, 2034.4457374960184, 14.51455172803253, 39.29325888445601, -0.03200000151991844, -0.03200000151991844, 0.9920000471174717, 0.0, 0.0, 0.0, 0.0, 0.0, 1.7404839215432143E9, 0.0, 2025-02-25 11:45:21.543
64.0, 293.11465902719647, 2081.351562740281, 11.24961906671524, 144.13387434231117, -0.03200000151991844, -0.03200000151991844, 0.9920000471174717, 0.0, 0.0, 0.0, 0.0, 0.0, 1.7404839215433674E9, 0.0, 2025-02-25 11:45:21.543
65.0, 499.8058399283327, 1847.910747406073, 6.675721420906484, 322.50653277896345, -0.03200000151991844, -0.03200000151991844, 0.9920000471174717, 0.0, 0.0, 0.0, 0.0, 0.0, 1.7404839215436857E9, 0.0, 2025-02-25 11:45:21.543
65.0, 345.05251966184005, 1785.5666151447222, 8.994459393434227, 196.18019207566977, -0.03200000151991844, -0.03200000151991844, 0.9920000471174717, 0.0, 0.0, 0.0, 0.0, 0.0, 1.7404839215437336E9, 0.0, 2025-02-25 11:45:21.543
66.0, 155.21332796104252, 2023.9627979202196, 11.66848786175251, 35.08961133426055, -0.03200000151991844, -0.03200000151991844, 0.9920000471174717, 0.0, 0.0, 0.0, 0.0, 0.0, 1.7404839215446863E9, 0.0, 2025-02-25 11:45:21.544
66.0, 313.8561441814527, 2100.447491914034, 13.201846843585372, 158.5773679711856, -0.03200000151991844, -0.03200000151991844, 0.9920000471174717, 0.0, 0.0, 0.0, 0.0, 0.0, 1.7404839215447447E9, 0.0, 2025-02-25 11:45:21.544
67.0, 472.81498194811866, 2335.603051377926, 13.224286243319511, 320.8160979989916, -0.03200000151991844, -0.03200000151991844, 0.9920000471174717, 0.0, 0.0, 0.0, 0.0, 0.0, 1.7404839215731685E9, 0.0, 2025-02-25 11:45:21.573
67.0, 337.3932045525871, 2282.862982202787, 11.818083859980106, 201.59556721150875, -0.03200000151991844, -0.03200000151991844, 0.9920000471174717, 0.0, 0.0, 0.0, 0.0, 0.0, 1.7404839215732217E9, 0.0, 2025-02-25 11:45:21.573
68.0, 168.4151748046279, 2527.5384570038877, 8.310057701542974, 40.17213537404314, -0.03200000151991844, -0.03200000151991844, 0.9920000471174717, 0.0, 0.0, 0.0, 0.0, 0.0, 1.7404839215734198E9, 0.0, 2025-02-25 11:45:21.573
68.0, 297.23976867832243, 2577.552139111329, 10.954166970215738, 157.2796226865612, -0.03200000151991844, -0.03200000151991844, 0.9920000471174717, 0.0, 0.0, 0.0, 0.0, 0.0, 1.7404839215734675E9, 0.0, 2025-02-25 11:45:21.573
69.0, 494.45404309174046, 2343.4755407846533, 14.87358212377876, 332.2302726637572, -0.03200000151991844, -0.03200000151991844, 0.9920000471174717, 0.0, 0.0, 0.0, 0.0, 0.0, 1.7404839215738537E9, 0.0, 2025-02-25 11:45:21.573
69.0, 348.9307959158905, 2293.2412045798264, 14.641708326525986, 213.327633372508, -0.03200000151991844, -0.03200000151991844, 0.9920000471174717, 0.0, 0.0, 0.0, 0.0, 0.0, 1.74048392157393E9, 0.0, 2025-02-25 11:45:21.573
70.0, 152.38596359454095, 2515.6156559451483, 12.240692554973066, 36.4808541177772, -0.03200000151991844, -0.03200000151991844, 1.008000047877431, 0.0, 0.0, 0.0, 0.0, 0.0, 1.7404839216028488E9, 0.0, 2025-02-25 11:45:21.602
70.0, 318.8189914226532, 2578.191662003752, 11.096283168531954, 175.7360289678909, -0.03200000151991844, -0.03200000151991844, 1.008000047877431, 0.0, 0.0, 0.0, 0.0, 0.0, 1.7404839216028953E9, 0.0, 2025-02-25 11:45:21.602
71.0, 520.0237390887924, 2344.0739247775637, 13.747872237116098, 363.5332352928817, -0.03200000151991844, -0.03200000151991844, 1.008000047877431, 0.0, 0.0, 0.0, 0.0, 0.0, 1.740483921603348E9, 0.0, 2025-02-25 11:45:21.603
71.0, 360.3374907807447, 2272.406221926678, 12.031258157454431, 228.49292769283056, -0.03200000151991844, -0.03200000151991844, 1.008000047877431, 0.0, 0.0, 0.0, 0.0, 0.0, 1.7404839216033852E9, 0.0, 2025-02-25 11:45:21.603
72.0, 162.36401667632163, 2504.1192034813575, 13.624455538578331, 52.86909572361037, -0.03200000151991844, -0.03200000151991844, 1.008000047877431, 0.0, 0.0, 0.0, 0.0, 0.0, 1.7404839216040084E9, 0.0, 2025-02-25 11:45:21.604
72.0, 330.9325273791328, 2575.7943861321546, 12.027518257498741, 189.71203510230407, -0.03200000151991844, -0.03200000151991844, 1.008000047877431, 0.0, 0.0, 0.0, 0.0, 0.0, 1.7404839216041408E9, 0.0, 2025-02-25 11:45:21.604
73.0, 512.3008456802927, 2819.533015994355, 14.260238531045616, 349.7965827556327, -0.03200000151991844, -0.03200000151991844, 1.008000047877431, 0.0, 0.0, 0.0, 0.0, 0.0, 1.7404839216328428E9, 0.0, 2025-02-25 11:45:21.632
73.0, 358.06363160768524, 2755.9210576480255, 16.50043860450387, 224.74554793722928, -0.03200000151991844, -0.03200000151991844, 1.008000047877431, 0.0, 0.0, 0.0, 0.0, 0.0, 1.740483921632934E9, 0.0, 2025-02-25 11:45:21.632
74.0, 149.87649072427303, 2978.639579809271, 8.4858329994604, 40.83035776624456, -0.03200000151991844, -0.03200000151991844, 1.008000047877431, 0.0, 0.0, 0.0, 0.0, 0.0, 1.740483921633291E9, 0.0, 2025-02-25 11:45:21.633
74.0, 310.0451861266047, 3035.3140237377957, 10.404401676729321, 163.1662252168171, -0.03200000151991844, -0.03200000151991844, 1.008000047877431, 0.0, 0.0, 0.0, 0.0, 0.0, 1.7404839216333342E9, 0.0, 2025-02-25 11:45:21.633
75.0, 513.4489949666895, 2807.1389875411987, 17.416714093647897, 337.29035730380565, -0.03200000151991844, -0.03200000151991844, 1.008000047877431, 0.0, 0.0, 0.0, 0.0, 0.0, 1.7404839216338332E9, 0.0, 2025-02-25 11:45:21.633
75.0, 342.1092183967121, 2734.700865299441, 11.376775665208697, 193.37526710890234, -0.03200000151991844, -0.03200000151991844, 1.008000047877431, 0.0, 0.0, 0.0, 0.0, 0.0, 1.7404839216338775E9, 0.0, 2025-02-25 11:45:21.633
76.0, 131.20317024551332, 2953.357856108807, 14.032104633748531, 7.02914196671918, -0.03200000151991844, -0.03200000151991844, 1.008000047877431, 0.0, 0.0, 0.0, 0.0, 0.0, 1.7404839216647606E9, 0.0, 2025-02-25 11:45:21.664
76.0, 291.8767521418631, 3017.916009143926, 9.802277783863246, 133.69581356598064, -0.03200000151991844, -0.03200000151991844, 1.008000047877431, 0.0, 0.0, 0.0, 0.0, 0.0, 1.7404839216648173E9, 0.0, 2025-02-25 11:45:21.664
77.0, 483.52979532117024, 2789.9541472448036, 10.86814927123487, 309.5963981319219, -0.03200000151991844, -0.03200000151991844, 1.008000047877431, 0.0, 0.0, 0.0, 0.0, 0.0, 1.7404839216650598E9, 0.0, 2025-02-25 11:45:21.665
77.0, 308.3902803962119, 2703.753193166107, 16.249865307472646, 162.57719097379595, -0.03200000151991844, -0.03200000151991844, 1.008000047877431, 0.0, 0.0, 0.0, 0.0, 0.0, 1.7404839216651008E9, 0.0, 2025-02-25 11:45:21.665
78.0, 107.95221222098917, 2941.393916150555, 9.809757583774626, -4.744063093792647, -0.03200000151991844, -0.03200000151991844, 1.008000047877431, 0.0, 0.0, 0.0, 0.0, 0.0, 1.7404839216651428E9, 0.0, 2025-02-25 11:45:21.665
78.0, 276.1953516276553, 3018.533092636615, 11.114982668310404, 146.1571602183394, -0.03200000151991844, -0.03200000151991844, 1.008000047877431, 0.0, 0.0, 0.0, 0.0, 0.0, 1.7404839216651783E9, 0.0, 2025-02-25 11:45:21.665
79.0, 478.8437006766908, 2785.3839894989505, 13.070950345136225, 320.80861819908023, -0.03200000151991844, -0.03200000151991844, 1.008000047877431, 0.0, 0.0, 0.0, 0.0, 0.0, 1.7404839216931176E9, 0.0, 2025-02-25 11:45:21.693
79.0, 321.38269284227863, 2724.0533701255918, 11.511412063613534, 182.62679463624954, -0.03200000151991844, -0.03200000151991844, 1.008000047877431, 0.0, 0.0, 0.0, 0.0, 0.0, 1.7404839216931767E9, 0.0, 2025-02-25 11:45:21.693
80.0, 130.4701498541981, 2967.7901300378144, 7.535898410715163, 14.879191973712295, -0.03200000151991844, -0.03200000151991844, 0.9920000471174717, 0.0, 0.0, 0.0, 0.0, 0.0, 1.7404839216935344E9, 0.0, 2025-02-25 11:45:21.693
80.0, 289.83102686610073, 3036.5332311233506, 13.549657539464533, 155.76870310446247, -0.03200000151991844, -0.03200000151991844, 0.9920000471174717, 0.0, 0.0, 0.0, 0.0, 0.0, 1.7404839216935668E9, 0.0, 2025-02-25 11:45:21.693
81.0, 498.08174604875967, 2819.196424998343, 11.65726816188544, 347.2833699854091, -0.03200000151991844, -0.03200000151991844, 0.9920000471174717, 0.0, 0.0, 0.0, 0.0, 0.0, 1.7404839216939445E9, 0.0, 2025-02-25 11:45:21.693
81.0, 329.8498263419606, 2743.7776024919003, 13.68055403791368, 204.5089492769912, -0.03200000151991844, -0.03200000151991844, 0.9920000471174717, 0.0, 0.0, 0.0, 0.0, 0.0, 1.7404839216939924E9, 0.0, 2025-02-25 11:45:21.693
82.0, 113.71539805270731, 2973.908606365323, 12.969973046332598, 25.54164674738422, -0.03200000151991844, -0.03200000151991844, 0.9920000471174717, 0.0, 0.0, 0.0, 0.0, 0.0, 1.7404839217230372E9, 0.0, 2025-02-25 11:45:21.723
82.0, 308.2126351483166, 3067.7726154532284, 11.27953826636076, 189.87659070035443, -0.03200000151991844, -0.03200000151991844, 0.9920000471174717, 0.0, 0.0, 0.0, 0.0, 0.0, 1.7404839217231612E9, 0.0, 2025-02-25 11:45:21.723
83.0, 514.226894157473, 2839.6349782561883, 7.045971516519785, 381.1444241842255, -0.03200000151991844, -0.03200000151991844, 0.9920000471174717, 0.0, 0.0, 0.0, 0.0, 0.0, 1.7404839217238078E9, 0.0, 2025-02-25 11:45:21.723
83.0, 337.0753130563535, 2755.9434970477596, 10.183747579343617, 223.6946360496804, -0.03200000151991844, -0.03200000151991844, 0.9920000471174717, 0.0, 0.0, 0.0, 0.0, 0.0, 1.7404839217238705E9, 0.0, 2025-02-25 11:45:21.723
84.0, 149.94754882343113, 2510.8846825012006, 10.684894173406065, 53.21316651953384, -0.03200000151991844, -0.03200000151991844, 0.9920000471174717, 0.0, 0.0, 0.0, 0.0, 0.0, 1.7404839217250311E9, 0.0, 2025-02-25 11:45:21.725
84.0, 323.7855785638094, 2596.2890378893353, 10.800831072032452, 216.40744098601863, -0.03200000151991844, -0.03200000151991844, 0.9920000471174717, 0.0, 0.0, 0.0, 0.0, 0.0, 1.7404839217250743E9, 0.0, 2025-02-25 11:45:21.725
85.0, 529.2276328797452, 2367.829769296106, 16.87442860007286, 394.90351612120867, -0.03200000151991844, -0.03200000151991844, 0.9920000471174717, 0.0, 0.0, 0.0, 0.0, 0.0, 1.7404839217530448E9, 0.0, 2025-02-25 11:45:21.753
85.0, 365.88002251507714, 2305.777349231299, 18.022577886469662, 251.87478221580386, -0.03200000151991844, -0.03200000151991844, 0.9920000471174717, 0.0, 0.0, 0.0, 0.0, 0.0, 1.7404839217532032E9, 0.0, 2025-02-25 11:45:21.753
86.0, 179.84430906921625, 2070.909762063995, 10.359522877261043, 96.8054404030554, -0.03200000151991844, -0.03200000151991844, 0.9920000471174717, 0.0, 0.0, 0.0, 0.0, 0.0, 1.7404839217534842E9, 0.0, 2025-02-25 11:45:21.753
86.0, 376.1441779434681, 2161.8753486862406, 13.740392437204719, 267.3299187826924, -0.03200000151991844, -0.03200000151991844, 0.9920000471174717, 0.0, 0.0, 0.0, 0.0, 0.0, 1.7404839217535443E9, 0.0, 2025-02-25 11:45:21.753
87.0, 608.0497643458657, 1966.465576001443, 13.220546343363822, 489.9642931949347, -0.03200000151991844, -0.03200000151991844, 0.9920000471174717, 0.0, 0.0, 0.0, 0.0, 0.0, 1.740483921754007E9, 0.0, 2025-02-25 11:45:21.754
87.0, 454.39597466634586, 1912.5923171397299, 11.64230856206268, 353.77957620844245, -0.03200000151991844, -0.03200000151991844, 0.9920000471174717, 0.0, 0.0, 0.0, 0.0, 0.0, 1.7404839217540452E9, 0.0, 2025-02-25 11:45:21.754
88.0, 283.8359672371298, 1678.9588969578035, 9.22259329073131, 210.79759105248377, -0.03200000151991844, -0.03200000151991844, 0.9920000471174717, 0.0, 0.0, 0.0, 0.0, 0.0, 1.7404839217829046E9, 0.0, 2025-02-25 11:45:21.782
88.0, 489.8333966964856, 1804.2343257735483, 12.04995765723288, 408.70561690768227, -0.03200000151991844, -0.03200000151991844, 0.9920000471174717, 0.0, 0.0, 0.0, 0.0, 0.0, 1.740483921782962E9, 0.0, 2025-02-25 11:45:21.782
89.0, 698.9181135692634, 1583.3408747906797, 13.66185453813523, 600.9046854805201, -0.03200000151991844, -0.03200000151991844, 0.9920000471174717, 0.0, 0.0, 0.0, 0.0, 0.0, 1.74048392181295E9, 0.0, 2025-02-25 11:45:21.812
89.0, 507.23702114028856, 1496.2647841223516, 14.48089262843132, 433.9181524589658, -0.03200000151991844, -0.03200000151991844, 0.9920000471174717, 0.0, 0.0, 0.0, 0.0, 0.0, 1.740483921813008E9, 0.0, 2025-02-25 11:45:21.813
90.0, 279.81557478476316, 1735.5099241877906, 11.156121567822993, 269.8954901522957, -0.03200000151991844, -0.03200000151991844, 0.9920000471174717, 0.0, 0.0, 0.0, 0.0, 0.0, 1.740483921813372E9, 0.0, 2025-02-25 11:45:21.813
90.0, 455.97982229758054, 1823.883760140743, 12.135975356213748, 443.25481269834563, -0.03200000151991844, -0.03200000151991844, 0.9920000471174717, 0.0, 0.0, 0.0, 0.0, 0.0, 1.7404839218134005E9, 0.0, 2025-02-25 11:45:21.813
91.0, 651.597159429919, 1608.0354341981001, 8.635428997687995, 634.0775980874896, -0.03200000151991844, -0.01600000075995922, 0.9920000471174717, 0.0, 0.0, 0.0, 0.0, 0.0, 1.7404839218144412E9, 0.0, 2025-02-25 11:45:21.814
91.0, 471.472357864026, 1521.4717098237015, 10.303424377925694, 476.60911045316607, -0.03200000151991844, -0.01600000075995922, 0.9920000471174717, 0.0, 0.0, 0.0, 0.0, 0.0, 1.7404839218144884E9, 0.0, 2025-02-25 11:45:21.814
92.0, 264.0818156711757, 1747.7655763425864, 9.132835691794753, 287.06911074882373, -0.01600000075995922, -0.01600000075995922, 0.9920000471174717, 0.0, 0.0, 0.0, 0.0, 0.0, 1.7404839218145757E9, 0.0, 2025-02-25 11:45:21.814
92.0, 459.01288116164505, 1845.7546950816177, 11.66474796179682, 460.22273879731074, -0.01600000075995922, -0.01600000075995922, 0.9920000471174717, 0.0, 0.0, 0.0, 0.0, 0.0, 1.740483921814614E9, 0.0, 2025-02-25 11:45:21.814
93.0, 657.6183983585797, 1640.6885007112287, 15.610342415049672, 662.7214918481186, -0.01600000075995922, -0.01600000075995922, 0.9920000471174717, 0.0, 0.0, 0.0, 0.0, 0.0, 1.7404839218152575E9, 0.0, 2025-02-25 11:45:21.815
93.0, 483.59711352037266, 1569.757558151614, 13.190627143718302, 513.1853320198134, -0.01600000075995922, -0.01600000075995922, 0.9920000471174717, 0.0, 0.0, 0.0, 0.0, 0.0, 1.7404839218152933E9, 0.0, 2025-02-25 11:45:21.815
94.0, 268.1957056224346, 1805.3413361604325, 9.420807988382876, 331.7309960196726, -0.01600000075995922, -0.01600000075995922, 0.9920000471174717, 0.0, 0.0, 0.0, 0.0, 0.0, 1.7404839218431108E9, 0.0, 2025-02-25 11:45:21.843
94.0, 471.1488565178588, 1907.3583271517418, 9.731219684705138, 514.5934043531306, -0.01600000075995922, -0.01600000075995922, 0.9920000471174717, 0.0, 0.0, 0.0, 0.0, 0.0, 1.7404839218431675E9, 0.0, 2025-02-25 11:45:21.843
95.0, 657.4164437609725, 2146.399642669596, 14.589349727146327, 676.3235079869628, -0.01600000075995922, -0.01600000075995922, 0.9920000471174717, 0.0, 0.0, 0.0, 0.0, 0.0, 1.7404839218433611E9, 0.0, 2025-02-25 11:45:21.843
95.0, 447.6304956465028, 2055.172263050452, 15.415867617353797, 493.5658168522641, -0.01600000075995922, -0.01600000075995922, 0.9920000471174717, 0.0, 0.0, 0.0, 0.0, 0.0, 1.7404839218434007E9, 0.0, 2025-02-25 11:45:21.843
96.0, 227.6626699026674, 2282.849892552942, 10.46797997597605, 310.6790991690941, -0.01600000075995922, -0.01600000075995922, 0.9920000471174717, 0.0, 0.0, 0.0, 0.0, 0.0, 1.7404839218440886E9, 0.0, 2025-02-25 11:45:21.844
96.0, 427.25365073792636, 2369.6716700242832, 8.631689097732306, 484.97713660402223, -0.01600000075995922, -0.01600000075995922, 0.9920000471174717, 0.0, 0.0, 0.0, 0.0, 0.0, 1.7404839218441453E9, 0.0, 2025-02-25 11:45:21.844
97.0, 655.2921805861406, 2170.121828088537, 14.802524024620652, 697.0313340416178, -0.01600000075995922, -0.01600000075995922, 0.9920000471174717, 0.0, 0.0, 0.0, 0.0, 0.0, 1.7404839218729591E9, 0.0, 2025-02-25 11:45:21.872
97.0, 526.9238545070402, 2119.752855485305, 13.220546343363822, 570.9967055348679, -0.01600000075995922, -0.01600000075995922, 0.9920000471174717, 0.0, 0.0, 0.0, 0.0, 0.0, 1.7404839218730197E9, 0.0, 2025-02-25 11:45:21.873
98.0, 336.7854708097875, 1887.323683089111, 11.851742959581316, 420.23198857111856, -0.01600000075995922, -0.01600000075995922, 0.9920000471174717, 0.0, 0.0, 0.0, 0.0, 0.0, 1.740483921873453E9, 0.0, 2025-02-25 11:45:21.873
98.0, 469.6641162354499, 1899.9421055396087, 15.165294320322573, 521.6281561697833, -0.01600000075995922, -0.01600000075995922, 0.9920000471174717, 0.0, 0.0, 0.0, 0.0, 0.0, 1.7404839218734996E9, 0.0, 2025-02-25 11:45:21.873
99.0, 278.3083951026201, 1749.1530792261474, 13.123308944515884, 300.9030006849207, -0.01600000075995922, -0.01600000075995922, 0.9920000471174717, 0.0, 0.0, 0.0, 0.0, 0.0, 1.740483921873881E9, 0.0, 2025-02-25 11:45:21.873
99.0, 215.53043444640934, 1763.749908753205, 17.25215849559754, 234.06350867683068, -0.01600000075995922, -0.01600000075995922, 0.9920000471174717, 0.0, 0.0, 0.0, 0.0, 0.0, 1.7404839218739357E9, 0.0, 2025-02-25 11:45:21.873
100.0, 249.54856444336474, 1745.6300934678875, 15.120415520854294, 302.3204227681272, -0.01600000075995922, -0.01600000075995922, 0.9920000471174717, 0.0, 0.0, 0.0, 0.0, 0.0, 1.7404839219029124E9, 0.0, 2025-02-25 11:45:21.902
100.0, 301.00584793370217, 1733.5614363108762, 11.451573664322495, 354.0394992553629, -0.01600000075995922, -0.01600000075995922, 0.9920000471174717, 0.0, 0.0, 0.0, 0.0, 0.0, 1.7404839219029756E9, 0.0, 2025-02-25 11:45:21.902
0.0, 129.95217371033505, 88.57018070062622, 9.480646387673914, 103.29229687619954, -0.01600000075995922, -0.01600000075995922, 0.9920000471174717, 0.0, 0.0, 0.0, 0.0, 0.0, 1.7404839219033644E9, 0.0, 2025-02-25 11:45:21.903
1.0, 19.834559415001422, 7.496629461180419, 14.87358212377876, -66.33460551407188, -0.01600000075995922, -0.03200000151991844, 0.9920000471174717, 0.0, 0.0, 0.0, 0.0, 0.0, 1.7404839219039536E9, 0.0, 2025-02-25 11:45:21.903
1.0, -98.33318953495473, -169.79145798832178, 11.934020758606493, -161.6141667352058, -0.01600000075995922, -0.03200000151991844, 0.9920000471174717, 0.0, 0.0, 0.0, 0.0, 0.0, 1.7404839219039876E9, 0.0, 2025-02-25 11:45:21.903
2.0, -151.96148494957015, -318.67126537440345, 10.344563277438283, -216.45418973546475, -0.01600000075995922, -0.03200000151991844, 0.9920000471174717, 0.0, 0.0, 0.0, 0.0, 0.0, 1.740483921904877E9, 0.0, 2025-02-25 11:45:21.904
2.0, -332.12742541497573, -530.5552973640151, 8.362416300922632, 7.339553663041443, -0.01600000075995922, -0.03200000151991844, 0.9920000471174717, 0.0, 0.0, 0.0, 0.0, 0.0, 1.7404839219049127E9, 0.0, 2025-02-25 11:45:21.904
3.0, -240.6663020486012, -362.29906830750406, 13.635675238445401, 92.86171589978039, -0.01600000075995922, -0.03200000151991844, 0.9920000471174717, 0.0, 0.0, 0.0, 0.0, 0.0, 1.7404839219328659E9, 0.0, 2025-02-25 11:45:21.932
3.0, -475.0514421216212, -559.707817518618, 14.847402824088931, -27.404116925317794, -0.01600000075995922, -0.03200000151991844, 0.9920000471174717, 0.0, 0.0, 0.0, 0.0, 0.0, 1.7404839219329236E9, 0.0, 2025-02-25 11:45:21.932
4.0, -409.2965211006813, -370.24822566332296, 14.787564424797893, -248.10870296042413, -0.01600000075995922, -0.03200000151991844, 0.9920000471174717, 0.0, 0.0, 0.0, 0.0, 0.0, 1.7404839219332817E9, 0.0, 2025-02-25 11:45:21.933
4.0, -493.87061869865283, -491.26764832949266, 18.736898778006434, -434.3594606537372, -0.01600000075995922, -0.03200000151991844, 0.9920000471174717, 0.0, 0.0, 0.0, 0.0, 0.0, 1.7404839219333267E9, 0.0, 2025-02-25 11:45:21.933
5.0, -682.9412609585561, -717.4343582498841, 12.693220449611545, -258.6608306854032, -0.01600000075995922, -0.03200000151991844, 0.9920000471174717, 0.0, 0.0, 0.0, 0.0, 0.0, 1.7404839219632332E9, 0.0, 2025-02-25 11:45:21.963
5.0, -781.0369668463245, -483.48491652170196, 10.976606369949877, -437.26910281926394, -0.01600000075995922, -0.03200000151991844, 0.9920000471174717, 0.0, 0.0, 0.0, 0.0, 0.0, 1.740483921963299E9, 0.0, 2025-02-25 11:45:21.963
6.0, -885.1670013125986, -688.7493255897425, 10.284724878147244, -571.7185062263161, -0.01600000075995922, -0.03200000151991844, 0.9920000471174717, 0.0, 0.0, 0.0, 0.0, 0.0, 1.740483921963549E9, 0.0, 2025-02-25 11:45:21.963
6.0, -647.9395372732542, -858.0059778844006, 14.637968426570296, -331.4804227226414, -0.01600000075995922, -0.03200000151991844, 0.9920000471174717, 0.0, 0.0, 0.0, 0.0, 0.0, 1.7404839219635823E9, 0.0, 2025-02-25 11:45:21.963
7.0, -523.1596452016383, -883.1568050864153, 12.46134665235877, -443.69612089311704, -0.01600000075995922, -0.03200000151991844, 0.9920000471174717, 0.0, 0.0, 0.0, 0.0, 0.0, 1.74048392196389E9, 0.0, 2025-02-25 11:45:21.963
7.0, -688.9213609877042, -1109.5647385539487, 12.625902250409126, -596.9067324278876, -0.01600000075995922, -0.03200000151991844, 0.9920000471174717, 0.0, 0.0, 0.0, 0.0, 0.0, 1.7404839219639137E9, 0.0, 2025-02-25 11:45:21.963
8.0, -908.3169820383191, -983.6572666456923, 12.285571354441345, -370.89709830563515, -0.01600000075995922, -0.03200000151991844, 0.9920000471174717, 0.0, 0.0, 0.0, 0.0, 0.0, 1.7404839219645832E9, 0.0, 2025-02-25 11:45:21.964
8.0, -703.1292409193702, -780.7994831991382, 16.204986508004367, -244.0602612583898, -0.01600000075995922, -0.03200000151991844, 0.9920000471174717, 0.0, 0.0, 0.0, 0.0, 0.0, 1.7404839219646637E9, 0.0, 2025-02-25 11:45:21.964
9.0, -898.0715261097066, -894.6831767498516, 9.787318184040487, -456.4903186415322, -0.01600000075995922, -0.03200000151991844, 0.9920000471174717, 0.0, 0.0, 0.0, 0.0, 0.0, 1.7404839219934368E9, 0.0, 2025-02-25 11:45:21.993
9.0, -1112.2200675224885, -656.0289408774115, 9.978053081780672, -624.0845854058862, -0.01600000075995922, -0.03200000151991844, 0.9920000471174717, 0.0, 0.0, 0.0, 0.0, 0.0, 1.74048392199349E9, 0.0, 2025-02-25 11:45:21.993
10.0, -886.5208450965583, -505.7784601575695, 9.559184286743402, -865.7662702924572, -0.01600000075995922, -0.03200000151991844, 0.9920000471174717, 0.0, 0.0, 0.0, 0.0, 0.0, 1.740483921993954E9, 0.0, 2025-02-25 11:45:21.993
10.0, -1043.7649387335405, -654.6451778938062, 14.948380122892559, -1069.4038228797726, -0.01600000075995922, -0.03200000151991844, 0.9920000471174717, 0.0, 0.0, 0.0, 0.0, 0.0, 1.740483921994001E9, 0.0, 2025-02-25 11:45:21.994
11.0, -952.3786133662798, -443.71669034287333, 10.565217374823987, -957.1488557597622, -0.01600000075995922, -0.03200000151991844, 0.9920000471174717, 0.0, 0.0, 0.0, 0.0, 0.0, 1.740483922022921E9, 0.0, 2025-02-25 11:45:22.022
11.0, -1099.4333495739847, -656.107478776481, 9.177714491263032, -1082.1868009283207, -0.01600000075995922, -0.03200000151991844, 0.9920000471174717, 0.0, 0.0, 0.0, 0.0, 0.0, 1.740483922023038E9, 0.0, 2025-02-25 11:45:22.023
12.0, -1243.9337341119535, -445.5698107709177, 6.1371758272871375, -1270.9152423422784, -0.01600000075995922, -0.03200000151991844, 0.9920000471174717, 0.0, 0.0, 0.0, 0.0, 0.0, 1.740483922023284E9, 0.0, 2025-02-25 11:45:22.023
12.0, -1229.2452770359814, -398.662115576677, 11.556290863081813, -1314.687031423673, -0.01600000075995922, -0.03200000151991844, 0.9920000471174717, 0.0, 0.0, 0.0, 0.0, 0.0, 1.7404839220233226E9, 0.0, 2025-02-25 11:45:22.023
13.0, -1407.253295226954, -478.95776762533933, 17.233458995819092, -1500.8143724184483, -0.01600000075995922, -0.03200000151991844, 0.9920000471174717, 0.0, 0.0, 0.0, 0.0, 0.0, 1.740483922023946E9, 0.0, 2025-02-25 11:45:22.023
13.0, -1310.1542726773769, -447.6174059966579, 10.740992672741413, -1384.806415692903, -0.01600000075995922, -0.03200000151991844, 0.9920000471174717, 0.0, 0.0, 0.0, 0.0, 0.0, 1.7404839220239828E9, 0.0, 2025-02-25 11:45:22.023
14.0, -1401.0675007002428, -666.057482608594, 12.517445151694119, -1510.6914482014254, -0.01600000075995922, -0.03200000151991844, 0.9920000471174717, 0.0, 0.0, 0.0, 0.0, 0.0, 1.7404839220246575E9, 0.0, 2025-02-25 11:45:22.024
14.0, -1206.4935956555419, -429.6640162593685, 17.958999587222934, -1334.5552499382757, -0.01600000075995922, -0.03200000151991844, 0.9920000471174717, 0.0, 0.0, 0.0, 0.0, 0.0, 1.7404839220247028E9, 0.0, 2025-02-25 11:45:22.024
15.0, -986.4397522127256, -600.9776135296561, 11.919061158783734, -1573.2207055105828, -0.01600000075995922, -0.03200000151991844, 0.9920000471174717, 0.0, 0.0, 0.0, 0.0, 0.0, 1.740483922053E9, 0.0, 2025-02-25 11:45:22.053
15.0, -1203.2698018937372, -400.025309110526, 9.25625239033252, -1758.011032271199, -0.01600000075995922, -0.03200000151991844, 0.9920000471174717, 0.0, 0.0, 0.0, 0.0, 0.0, 1.740483922053056E9, 0.0, 2025-02-25 11:45:22.053
16.0, -1372.0421371441334, -196.9300420167856, 10.359522877261043, -1928.1671305052005, -0.01600000075995922, -0.03200000151991844, 0.9920000471174717, 0.0, 0.0, 0.0, 0.0, 0.0, 1.740483922053238E9, 0.0, 2025-02-25 11:45:22.053
16.0, -1376.414080192335, -158.54557882156223, 12.48004615213722, -1944.839604507666, -0.01600000075995922, -0.03200000151991844, 0.9920000471174717, 0.0, 0.0, 0.0, 0.0, 0.0, 1.7404839220532744E9, 0.0, 2025-02-25 11:45:22.053
17.0, -1529.71631927602, -223.0700727570802, 12.996152346022427, -2070.631139517296, -0.01600000075995922, -0.03200000151991844, 0.9920000471174717, 0.0, 0.0, 0.0, 0.0, 0.0, 1.7404839220831847E9, 0.0, 2025-02-25 11:45:22.083
17.0, -1520.392748686485, -268.2368445219472, 13.433720640838146, -2023.6392965740524, -0.01600000075995922, -0.03200000151991844, 0.9920000471174717, 0.0, 0.0, 0.0, 0.0, 0.0, 1.740483922083254E9, 0.0, 2025-02-25 11:45:22.083
18.0, -1709.3156648981385, -98.89417452830821, 12.8951750472188, -2224.829084640369, -0.01600000075995922, -0.03200000151991844, 0.9920000471174717, 0.0, 0.0, 0.0, 0.0, 0.0, 1.7404839220834203E9, 0.0, 2025-02-25 11:45:22.083
18.0, -1854.7566342749633, -207.3924121428281, 12.925094246864319, -2388.864836596884, -0.01600000075995922, -0.03200000151991844, 0.9920000471174717, 0.0, 0.0, 0.0, 0.0, 0.0, 1.74048392208346E9, 0.0, 2025-02-25 11:45:22.083
19.0, -2034.9225747403689, -313.13434349000454, 13.115829144604504, -2567.7143322778866, -0.01600000075995922, -0.03200000151991844, 0.9920000471174717, 0.0, 0.0, 0.0, 0.0, 0.0, 1.7404839220839713E9, 0.0, 2025-02-25 11:45:22.083
19.0, -2273.29818806611, -134.20630990993232, 10.277245078235865, -2351.2751021422446, -0.01600000075995922, -0.03200000151991844, 0.9920000471174717, 0.0, 0.0, 0.0, 0.0, 0.0, 1.740483922084002E9, 0.0, 2025-02-25 11:45:22.084
20.0, -2105.8179882504046, -76.3687570951879, 9.334790289402008, -2216.3656910406426, -0.01600000075995922, -0.03200000151991844, 0.9920000471174717, 0.0, 0.0, 0.0, 0.0, 0.0, 1.740483922084579E9, 0.0, 2025-02-25 11:45:22.084
20.0, -1887.1591274910606, -294.71907610818744, 13.889988435432315, -2079.737795909401, -0.01600000075995922, -0.03200000151991844, 0.9920000471174717, 0.0, 0.0, 0.0, 0.0, 0.0, 1.7404839220846128E9, 0.0, 2025-02-25 11:45:22.084
21.0, -2115.4949793857522, -397.1624156944454, 9.783578284084797, -2320.250762059819, -0.01600000075995922, -0.03200000151991844, 0.9920000471174717, 0.0, 0.0, 0.0, 0.0, 0.0, 1.740483922113628E9, 0.0, 2025-02-25 11:45:22.113
21.0, -1902.7806896059774, -241.20484764222056, 7.472320111468434, -2103.0710317329504, -0.01600000075995922, -0.03200000151991844, 0.9920000471174717, 0.0, 0.0, 0.0, 0.0, 0.0, 1.7404839221138306E9, 0.0, 2025-02-25 11:45:22.113
22.0, -1704.883883450646, -144.31899939011782, 9.869595983065665, -1953.9126018001698, -0.01600000075995922, -0.03200000151991844, 0.9920000471174717, 0.0, 0.0, 0.0, 0.0, 0.0, 1.7404839221138935E9, 0.0, 2025-02-25 11:45:22.113
22.0, -1510.3398976055905, 100.32094636140391, 9.570403986610472, -1782.095987985842, -0.01600000075995922, -0.03200000151991844, 0.9920000471174717, 0.0, 0.0, 0.0, 0.0, 0.0, 1.740483922113937E9, 0.0, 2025-02-25 11:45:22.113
23.0, -1329.607362296898, -82.24600987555459, 11.70214696135372, -1599.871232594829, -0.01600000075995922, -0.03200000151991844, 0.9920000471174717, 0.0, 0.0, 0.0, 0.0, 0.0, 1.7404839221428945E9, 0.0, 2025-02-25 11:45:22.142
23.0, -1523.0892165545374, -309.16256973706186, 9.963093481957912, -1764.4399202950299, -0.01600000075995922, -0.03200000151991844, 0.9920000471174717, 0.0, 0.0, 0.0, 0.0, 0.0, 1.7404839221430938E9, 0.0, 2025-02-25 11:45:22.143
24.0, -1602.6724176616408, -504.518113872502, 9.166494791395962, -1856.316172556486, -0.01600000075995922, -0.03200000151991844, 0.9920000471174717, 0.0, 0.0, 0.0, 0.0, 0.0, 1.7404839221433477E9, 0.0, 2025-02-25 11:45:22.143
24.0, -1847.138458065223, -702.1755664306693, 16.646294702775776, -1620.2256381036714, -0.01600000075995922, -0.03200000151991844, 0.9920000471174717, 0.0, 0.0, 0.0, 0.0, 0.0, 1.7404839221434317E9, 0.0, 2025-02-25 11:45:22.143
25.0, -1637.9452840937302, -861.9291329379193, 8.201600602827966, -1383.4245226592757, -0.01600000075995922, -0.03200000151991844, 0.9920000471174717, 0.0, 0.0, 0.0, 0.0, 0.0, 1.740483922144256E9, 0.0, 2025-02-25 11:45:22.144
25.0, -1458.2879700222984, -714.9361050794832, 9.708780284970999, -1170.900967777241, -0.01600000075995922, -0.03200000151991844, 0.9920000471174717, 0.0, 0.0, 0.0, 0.0, 0.0, 1.7404839221442945E9, 0.0, 2025-02-25 11:45:22.144
26.0, -1242.4845228791237, -605.3495565778576, 9.68634088523686, -964.4622301231138, -0.01600000075995922, -0.03200000151991844, 0.9920000471174717, 0.0, 0.0, 0.0, 0.0, 0.0, 1.740483922144602E9, 0.0, 2025-02-25 11:45:22.144
26.0, -1008.0133651071228, -806.1186058991589, 9.843416683375835, -747.3367283456028, -0.01600000075995922, -0.03200000151991844, 0.9920000471174717, 0.0, 0.0, 0.0, 0.0, 0.0, 1.7404839221446393E9, 0.0, 2025-02-25 11:45:22.144
27.0, -778.2769206790254, -935.4443463669159, 9.346009989269078, -972.0373974833637, -0.01600000075995922, -0.03200000151991844, 0.9920000471174717, 0.0, 0.0, 0.0, 0.0, 0.0, 1.740483922173077E9, 0.0, 2025-02-25 11:45:22.173
27.0, -1015.5642231176607, -734.0507337530144, 9.409588288515806, -1184.5329031157307, -0.01600000075995922, -0.03200000151991844, 0.9920000471174717, 0.0, 0.0, 0.0, 0.0, 0.0, 1.7404839221731322E9, 0.0, 2025-02-25 11:45:22.173
28.0, -784.1279941597022, -612.5376442926936, 13.789011136628687, -964.1518184267916, -0.01600000075995922, -0.03200000151991844, 0.9920000471174717, 0.0, 0.0, 0.0, 0.0, 0.0, 1.7404839221733215E9, 0.0, 2025-02-25 11:45:22.173
28.0, -579.9949048282579, -840.9146350868978, 8.538191598840058, -777.8842311836779, -0.01600000075995922, -0.03200000151991844, 0.9920000471174717, 0.0, 0.0, 0.0, 0.0, 0.0, 1.740483922173355E9, 0.0, 2025-02-25 11:45:22.173
29.0, -471.00487036956474, -606.5033157141879, 11.601169662550092, -649.1063860594295, -0.01600000075995922, -0.03200000151991844, 0.9920000471174717, 0.0, 0.0, 0.0, 0.0, 0.0, 1.740483922203632E9, 0.0, 2025-02-25 11:45:22.203
29.0, -272.0721119265072, -442.66951835528016, 8.291358201764524, -420.7293952652253, -0.01600000075995922, -0.03200000151991844, 0.9920000471174717, 0.0, 0.0, 0.0, 0.0, 0.0, 1.740483922203709E9, 0.0, 2025-02-25 11:45:22.203
30.0, -511.573435138911, -282.70277755055577, 11.978899558074772, -635.2706261733547, -0.01600000075995922, -0.03200000151991844, 0.9920000471174717, 0.0, 0.0, 0.0, 0.0, 0.0, 1.7404839222040896E9, 0.0, 2025-02-25 11:45:22.204
30.0, -309.47859128331766, -40.79669866664335, 10.87188917119056, -432.528779625427, -0.01600000075995922, -0.03200000151991844, 0.9920000471174717, 0.0, 0.0, 0.0, 0.0, 0.0, 1.740483922204132E9, 0.0, 2025-02-25 11:45:22.204
31.0, -208.51438212953508, 185.99270459637046, 12.394028453156352, -283.30864134337753, -0.01600000075995922, -0.03200000151991844, 0.9920000471174717, 0.0, 0.0, 0.0, 0.0, 0.0, 1.7404839222042413E9, 0.0, 2025-02-25 11:45:22.204
31.0, -359.6212999392301, 8.564370898529887, 6.7804386196658015, -392.4127427507192, -0.01600000075995922, -0.03200000151991844, 0.9920000471174717, 0.0, 0.0, 0.0, 0.0, 0.0, 1.7404839222042725E9, 0.0, 2025-02-25 11:45:22.204
32.0, -299.62769480003044, 14.385525179561228, 7.491019611246884, -331.9179910174571, -0.01600000075995922, -0.03200000151991844, 0.9920000471174717, 0.0, 0.0, 0.0, 0.0, 0.0, 1.7404839222046418E9, 0.0, 2025-02-25 11:45:22.204
32.0, -313.635490084067, 69.79588292306289, 10.217406678944826, -340.7497647628188, -0.01600000075995922, -0.03200000151991844, 0.9920000471174717, 0.0, 0.0, 0.0, 0.0, 0.0, 1.7404839222046733E9, 0.0, 2025-02-25 11:45:22.204
33.0, -309.98160782735795, 170.30569423222914, 7.977206605486572, -317.02383944392204, -0.01600000075995922, -0.03200000151991844, 0.9920000471174717, 0.0, 0.0, 0.0, 0.0, 0.0, 1.7404839222328603E9, 0.0, 2025-02-25 11:45:22.232
33.0, -458.62580151623115, -48.31576752755791, 8.732666396535933, -452.62700198730454, -0.01600000075995922, -0.03200000151991844, 0.9920000471174717, 0.0, 0.0, 0.0, 0.0, 0.0, 1.7404839222329097E9, 0.0, 2025-02-25 11:45:22.232
34.0, -602.9017920568585, 171.13782197237015, 10.654974973760545, -619.9557358548045, -0.01600000075995922, -0.03200000151991844, 0.9920000471174717, 0.0, 0.0, 0.0, 0.0, 0.0, 1.7404839222332475E9, 0.0, 2025-02-25 11:45:22.233
34.0, -767.2255163099617, 2.2289803735911846, 9.031858392991126, -836.4323649900034, -0.01600000075995922, -0.03200000151991844, 0.9920000471174717, 0.0, 0.0, 0.0, 0.0, 0.0, 1.7404839222333393E9, 0.0, 2025-02-25 11:45:22.233
35.0, -969.5765433125198, -133.92207751329988, 9.480646387673914, -593.8792834137566, -0.01600000075995922, -0.03200000151991844, 0.9920000471174717, 0.0, 0.0, 0.0, 0.0, 0.0, 1.740483922265506E9, 0.0, 2025-02-25 11:45:22.265
35.0, -1210.8281397041865, -5.325617536902428, 14.009665234014392, -450.13622861681506, -0.01600000075995922, -0.03200000151991844, 0.9920000471174717, 0.0, 0.0, 0.0, 0.0, 0.0, 1.7404839222655554E9, 0.0, 2025-02-25 11:45:22.265
36.0, -1158.5405984236859, 102.71261238306761, 13.31404384225607, -275.38566328724846, -0.01600000075995922, -0.03200000151991844, 0.9920000471174717, 0.0, 0.0, 0.0, 0.0, 0.0, 1.7404839222657697E9, 0.0, 2025-02-25 11:45:22.265
36.0, -1065.3142422782257, 18.07867638580501, 13.186887243762612, -460.92583998898044, -0.01600000075995922, -0.03200000151991844, 0.9920000471174717, 0.0, 0.0, 0.0, 0.0, 0.0, 1.7404839222658033E9, 0.0, 2025-02-25 11:45:22.265
37.0, -901.3289789711125, 17.910380887798965, 12.150934956036508, -559.0869941259734, -0.01600000075995922, -0.03200000151991844, 0.9920000471174717, 0.0, 0.0, 0.0, 0.0, 0.0, 1.7404839222659888E9, 0.0, 2025-02-25 11:45:22.265
37.0, -698.6488407724537, 240.43068835139275, 10.415621376596391, -747.9500719383359, -0.01600000075995922, -0.03200000151991844, 0.9920000471174717, 0.0, 0.0, 0.0, 0.0, 0.0, 1.740483922266022E9, 0.0, 2025-02-25 11:45:22.266
38.0, -459.1680870098062, 385.2620540354401, 11.387995365075767, -543.8899106560275, -0.01600000075995922, -0.03200000151991844, 0.9920000471174717, 0.0, 0.0, 0.0, 0.0, 0.0, 1.740483922266194E9, 0.0, 2025-02-25 11:45:22.266
38.0, -643.0477481312118, 242.49885302688926, 9.23007309064269, -727.1113493852317, -0.01600000075995922, -0.03200000151991844, 0.9920000471174717, 0.0, 0.0, 0.0, 0.0, 0.0, 1.7404839222662444E9, 0.0, 2025-02-25 11:45:22.266
39.0, -401.31370464526117, 182.24906474072486, 9.820977283641696, -861.8300255890936, -0.01600000075995922, -0.03200000151991844, 0.9920000471174717, 0.0, 0.0, 0.0, 0.0, 0.0, 1.7404839222932096E9, 0.0, 2025-02-25 11:45:22.293
39.0, -538.9850318641402, 318.23930692952126, 10.733512872830033, -644.9008685592562, -0.01600000075995922, -0.03200000151991844, 0.9920000471174717, 0.0, 0.0, 0.0, 0.0, 0.0, 1.7404839222932823E9, 0.0, 2025-02-25 11:45:22.293
40.0, -701.9231231836602, 391.05889896675944, 12.431427452713251, -476.6053705532104, -0.01600000075995922, -0.03200000151991844, 0.9920000471174717, 0.0, 0.0, 0.0, 0.0, 0.0, 1.7404839222934413E9, 0.0, 2025-02-25 11:45:22.293
40.0, -557.3965593460016, 189.93455914966762, 11.870442459359765, -259.52474757516757, -0.01600000075995922, -0.03200000151991844, 0.9920000471174717, 0.0, 0.0, 0.0, 0.0, 0.0, 1.7404839222934856E9, 0.0, 2025-02-25 11:45:22.293
41.0, -800.5349352653138, 102.6415542839095, 13.127048844471574, -450.1998069160618, -0.01600000075995922, -0.03200000151991844, 0.9920000471174717, 0.0, 0.0, 0.0, 0.0, 0.0, 1.7404839223229263E9, 0.0, 2025-02-25 11:45:22.322
41.0, -590.7938659503125, 283.66767173912376, 17.424193893559277, -210.55449755536392, -0.01600000075995922, -0.03200000151991844, 0.9920000471174717, 0.0, 0.0, 0.0, 0.0, 0.0, 1.74048392232298E9, 0.0, 2025-02-25 11:45:22.322
42.0, -361.7474330640398, 412.07339681778103, 7.6667949091643095, 19.692443216685206, -0.01600000075995922, -0.03200000151991844, 0.9920000471174717, 0.0, 0.0, 0.0, 0.0, 0.0, 1.7404839223233645E9, 0.0, 2025-02-25 11:45:22.323
42.0, -557.7668094416149, 253.13138860091567, 11.810604060068727, -202.895182446111, -0.01600000075995922, -0.03200000151991844, 0.9920000471174717, 0.0, 0.0, 0.0, 0.0, 0.0, 1.74048392232339E9, 0.0, 2025-02-25 11:45:22.323
43.0, -791.2712030750699, 110.31582899298519, 13.770311636850238, -445.98493966599926, -0.01600000075995922, -0.03200000151991844, 0.9920000471174717, 0.0, 0.0, 0.0, 0.0, 0.0, 1.7404839223240216E9, 0.0, 2025-02-25 11:45:22.324
43.0, -604.777351884637, 285.6834778152406, 12.244432454928756, -685.7069169757888, -0.01600000075995922, -0.03200000151991844, 0.9920000471174717, 0.0, 0.0, 0.0, 0.0, 0.0, 1.7404839223240764E9, 0.0, 2025-02-25 11:45:22.324
44.0, -373.65527452295646, 428.14748682733625, 11.230919566936791, -445.93819091655314, -0.01600000075995922, -0.03200000151991844, 0.9920000471174717, 0.0, 0.0, 0.0, 0.0, 0.0, 1.7404839223536463E9, 0.0, 2025-02-25 11:45:22.353
44.0, -551.4014997170307, 284.48670982941985, 10.8943285709247, -650.9557665875182, -0.01600000075995922, -0.03200000151991844, 0.9920000471174717, 0.0, 0.0, 0.0, 0.0, 0.0, 1.740483922353699E9, 0.0, 2025-02-25 11:45:22.353
45.0, -746.1567899095826, 199.51992273610085, 12.86899574752897, -845.5165819823742, -0.01600000075995922, -0.03200000151991844, 0.9920000471174717, 0.0, 0.0, 0.0, 0.0, 0.0, 1.7404839223540776E9, 0.0, 2025-02-25 11:45:22.354
45.0, -518.9840469011106, 365.9492106642574, 9.525525187142193, -618.5532733714208, -0.01600000075995922, -0.03200000151991844, 0.9920000471174717, 0.0, 0.0, 0.0, 0.0, 0.0, 1.7404839223541536E9, 0.0, 2025-02-25 11:45:22.354
46.0, -749.8088022163138, 507.2725501898676, 8.44095419999212, -861.3457085448317, -0.01600000075995922, -0.03200000151991844, 0.9920000471174717, 0.0, 0.0, 0.0, 0.0, 0.0, 1.7404839223542414E9, 0.0, 2025-02-25 11:45:22.354
46.0, -957.537805355154, 342.70199253968894, 17.166140796616673, -1080.3280706503429, -0.01600000075995922, -0.03200000151991844, 0.9920000471174717, 0.0, 0.0, 0.0, 0.0, 0.0, 1.7404839223542807E9, 0.0, 2025-02-25 11:45:22.354
47.0, -723.3845390793867, 214.83481305465102, 14.735205825418234, -1318.5484781279229, -0.01600000075995922, -0.03200000151991844, 0.9920000471174717, 0.0, 0.0, 0.0, 0.0, 0.0, 1.740483922354696E9, 0.0, 2025-02-25 11:45:22.354
47.0, -532.9974520350806, 382.19533607177436, 10.524078475311399, -1096.8584284544922, -0.01600000075995922, -0.03200000151991844, 0.9920000471174717, 0.0, 0.0, 0.0, 0.0, 0.0, 1.740483922354786E9, 0.0, 2025-02-25 11:45:22.354
48.0, -300.9067405848764, 498.3454089956358, 10.146348579786718, -876.1781517690979, -0.01600000075995922, -0.03200000151991844, 0.9920000471174717, 0.0, 0.0, 0.0, 0.0, 0.0, 1.7404839223828864E9, 0.0, 2025-02-25 11:45:22.382
48.0, -474.209964631591, 356.5770213752985, 13.796490936540067, -1080.144815552514, -0.01600000075995922, -0.03200000151991844, 0.9920000471174717, 0.0, 0.0, 0.0, 0.0, 0.0, 1.7404839223829353E9, 0.0, 2025-02-25 11:45:22.382
49.0, -694.5349508211948, 268.92124621383846, 12.753058848902583, -1278.6811446002685, -0.01600000075995922, -0.03200000151991844, 0.9920000471174717, 0.0, 0.0, 0.0, 0.0, 0.0, 1.7404839223832583E9, 0.0, 2025-02-25 11:45:22.383
49.0, -505.43064946169034, 420.98931831214577, 14.705286625772715, -1063.5172203495167, -0.01600000075995922, -0.03200000151991844, 0.9920000471174717, 0.0, 0.0, 0.0, 0.0, 0.0, 1.7404839223832948E9, 0.0, 2025-02-25 11:45:22.383
50.0, -740.9975979207084, 559.6049702698365, 14.436013828963041, -1303.4411522569135, -0.01600000075995922, -0.03200000151991844, 0.9920000471174717, 0.0, 0.0, 0.0, 0.0, 0.0, 1.740483922414889E9, 0.0, 2025-02-25 11:45:22.414
50.0, -906.0319031653926, 421.26233100891113, 13.867549035698175, -1480.581513658166, -0.01600000075995922, -0.03200000151991844, 0.9920000471174717, 0.0, 0.0, 0.0, 0.0, 0.0, 1.740483922415198E9, 0.0, 2025-02-25 11:45:22.415
51.0, -689.4823459810577, 265.2673639571294, 9.940654082223773, -1240.055457857903, -0.01600000075995922, -0.03200000151991844, 0.9920000471174717, 0.0, 0.0, 0.0, 0.0, 0.0, 1.7404839224156473E9, 0.0, 2025-02-25 11:45:22.415
51.0, -519.2981984973885, 400.87613635044545, 13.403801441192627, -1042.4466239991598, -0.01600000075995922, -0.03200000151991844, 0.9920000471174717, 0.0, 0.0, 0.0, 0.0, 0.0, 1.7404839224157646E9, 0.0, 2025-02-25 11:45:22.415
52.0, -283.13847589539364, 515.3320345943794, 9.873335883021355, -833.0571052799933, -0.01600000075995922, -0.03200000151991844, 0.9920000471174717, 0.0, 0.0, 0.0, 0.0, 0.0, 1.7404839224160378E9, 0.0, 2025-02-25 11:45:22.416
52.0, -449.36580922594294, 365.78465506620705, 14.047064233571291, -1037.8577667535283, -0.01600000075995922, -0.03200000151991844, 0.9920000471174717, 0.0, 0.0, 0.0, 0.0, 0.0, 1.7404839224160783E9, 0.0, 2025-02-25 11:45:22.416
53.0, -214.1055325632915, 233.10048443824053, 10.247325878590345, -1276.9570507206954, -0.01600000075995922, -0.03200000151991844, 0.9920000471174717, 0.0, 0.0, 0.0, 0.0, 0.0, 1.7404839224161787E9, 0.0, 2025-02-25 11:45:22.416
53.0, -23.221038824878633, 400.3675099564716, 13.067210445180535, -1050.3490326055326, -0.01600000075995922, -0.03200000151991844, 0.9920000471174717, 0.0, 0.0, 0.0, 0.0, 0.0, 1.7404839224162152E9, 0.0, 2025-02-25 11:45:22.416
54.0, 213.63804506883025, 520.0667479382828, 9.349749889224768, -824.6759894792922, -0.01600000075995922, -0.03200000151991844, 0.9920000471174717, 0.0, 0.0, 0.0, 0.0, 0.0, 1.7404839224431374E9, 0.0, 2025-02-25 11:45:22.443
54.0, 29.31333585269749, 366.11376626230776, 9.301131189800799, -1030.3555274424143, -0.01600000075995922, -0.03200000151991844, 0.9920000471174717, 0.0, 0.0, 0.0, 0.0, 0.0, 1.7404839224432113E9, 0.0, 2025-02-25 11:45:22.443
55.0, -184.15641371812671, 271.4643781837076, 10.613836074247956, -1242.72200652631, -0.01600000075995922, -0.03200000151991844, 0.9920000471174717, 0.0, 0.0, 0.0, 0.0, 0.0, 1.7404839224434447E9, 0.0, 2025-02-25 11:45:22.443
55.0, -24.18219311349094, 412.3912883140147, 10.86066947132349, -1044.4474704754539, -0.01600000075995922, -0.03200000151991844, 0.9920000471174717, 0.0, 0.0, 0.0, 0.0, 0.0, 1.7404839224434953E9, 0.0, 2025-02-25 11:45:22.443
56.0, 192.69834521692246, 518.2267171600834, 13.489819140173495, -829.8594908178784, -0.01600000075995922, -0.03200000151991844, 0.9920000471174717, 0.0, 0.0, 0.0, 0.0, 0.0, 1.7404839224728813E9, 0.0, 2025-02-25 11:45:22.472
56.0, 22.327202735468745, 370.2426158133894, 10.696113873273134, -1022.6700330334716, -0.01600000075995922, -0.03200000151991844, 0.9920000471174717, 0.0, 0.0, 0.0, 0.0, 0.0, 1.740483922472958E9, 0.0, 2025-02-25 11:45:22.472
57.0, -211.07995349913836, 259.0030315313488, 12.154674855992198, -1243.0548576223664, -0.01600000075995922, -0.03200000151991844, 0.9920000471174717, 0.0, 0.0, 0.0, 0.0, 0.0, 1.7404839224732962E9, 0.0, 2025-02-25 11:45:22.473
57.0, -26.97963828034699, 405.61832949426025, 12.943793746642768, -1035.1650387854315, -0.01600000075995922, -0.03200000151991844, 0.9920000471174717, 0.0, 0.0, 0.0, 0.0, 0.0, 1.7404839224733448E9, 0.0, 2025-02-25 11:45:22.473
58.0, 201.18417821638286, 519.1542123490945, 10.512858775444329, -820.8089329251088, -0.01600000075995922, -0.03200000151991844, 0.9920000471174717, 0.0, 0.0, 0.0, 0.0, 0.0, 1.7404839224739375E9, 0.0, 2025-02-25 11:45:22.473
58.0, 10.542777975089848, 360.2122041322291, 10.8569295713678, -1042.5812603975646, -0.01600000075995922, -0.03200000151991844, 0.9920000471174717, 0.0, 0.0, 0.0, 0.0, 0.0, 1.74048392247398E9, 0.0, 2025-02-25 11:45:22.473
59.0, -223.93398964684457, 228.68366259057075, 14.047064233571291, -1271.4182588863187, -0.01600000075995922, -0.03200000151991844, 0.9920000471174717, 0.0, 0.0, 0.0, 0.0, 0.0, 1.7404839224745257E9, 0.0, 2025-02-25 11:45:22.474
59.0, -42.58250089548528, 382.6927427658811, 10.86440937127918, -1075.671895205509, -0.01600000075995922, -0.03200000151991844, 0.9920000471174717, 0.0, 0.0, 0.0, 0.0, 0.0, 1.7404839224745667E9, 0.0, 2025-02-25 11:45:22.474
60.0, 201.17669841647148, 517.471257369034, 13.074690245091915, -847.122869013343, -0.01600000075995922, -0.03200000151991844, 0.9760000463575125, 0.0, 0.0, 0.0, 0.0, 0.0, 1.740483922502818E9, 0.0, 2025-02-25 11:45:22.502
60.0, 25.270504000596702, 367.83038034196943, 10.699853773228824, -1041.4630303108133, -0.01600000075995922, -0.03200000151991844, 0.9760000463575125, 0.0, 0.0, 0.0, 0.0, 0.0, 1.7404839225028708E9, 0.0, 2025-02-25 11:45:22.502
61.0, -212.67315088026226, 247.62999576609582, 14.86984222382307, -1274.8253077459522, -0.01600000075995922, -0.03200000151991844, 0.9760000463575125, 0.0, 0.0, 0.0, 0.0, 0.0, 1.740483922503266E9, 0.0, 2025-02-25 11:45:22.503
61.0, -26.53459018561989, 398.3666634801775, 10.288464778102934, -1065.8471780219115, -0.01600000075995922, -0.03200000151991844, 0.9760000463575125, 0.0, 0.0, 0.0, 0.0, 0.0, 1.740483922503373E9, 0.0, 2025-02-25 11:45:22.503
62.0, 208.9930893238634, 525.2689487766474, 12.435167352668941, -838.6220764140598, -0.01600000075995922, -0.03200000151991844, 0.9760000463575125, 0.0, 0.0, 0.0, 0.0, 0.0, 1.7404839225336697E9, 0.0, 2025-02-25 11:45:22.533
62.0, 68.58228538744152, 420.17402012180537, 11.28701806627214, -990.5779515136965, -0.01600000075995922, -0.03200000151991844, 0.9760000463575125, 0.0, 0.0, 0.0, 0.0, 0.0, 1.7404839225337484E9, 0.0, 2025-02-25 11:45:22.533
63.0, -163.0820774678141, 291.9253708412871, 8.362416300922632, -1222.1151577704586, -0.01600000075995922, -0.03200000151991844, 0.9760000463575125, 0.0, 0.0, 0.0, 0.0, 0.0, 1.7404839225345674E9, 0.0, 2025-02-25 11:45:22.534
63.0, 40.98930351436138, 472.4877407019958, 17.057683697901666, -999.9875398022123, -0.01600000075995922, -0.03200000151991844, 0.9760000463575125, 0.0, 0.0, 0.0, 0.0, 0.0, 1.7404839225346131E9, 0.0, 2025-02-25 11:45:22.534
64.0, -194.63748334394768, 627.00544727128, 12.0424778573215, -1223.822422100231, -0.01600000075995922, -0.03200000151991844, 0.9760000463575125, 0.0, 0.0, 0.0, 0.0, 0.0, 1.7404839225347857E9, 0.0, 2025-02-25 11:45:22.534
64.0, -351.9713345798664, 491.0039853826165, 10.965386670082808, -1401.9276776900515, -0.01600000075995922, -0.03200000151991844, 0.9760000463575125, 0.0, 0.0, 0.0, 0.0, 0.0, 1.7404839225348809E9, 0.0, 2025-02-25 11:45:22.534
65.0, -587.2334811924957, 374.6182987615466, 14.563170427456498, -1623.3484545666724, -0.01600000075995922, -0.03200000151991844, 0.9760000463575125, 0.0, 0.0, 0.0, 0.0, 0.0, 1.740483922534988E9, 0.0, 2025-02-25 11:45:22.534
65.0, -418.27976079424843, 525.4447240745649, 13.385101941414177, -1430.178881955333, -0.01600000075995922, -0.03200000151991844, 0.9760000463575125, 0.0, 0.0, 0.0, 0.0, 0.0, 1.7404839225350225E9, 0.0, 2025-02-25 11:45:22.535
66.0, -639.4967131232843, 668.8624075753614, 12.648341650143266, -1665.5476157166995, -0.01600000075995922, -0.03200000151991844, 0.9760000463575125, 0.0, 0.0, 0.0, 0.0, 0.0, 1.7404839225636315E9, 0.0, 2025-02-25 11:45:22.563
66.0, -775.6814301097766, 547.6148510118946, 12.401508253067732, -1837.538134878967, -0.01600000075995922, -0.03200000151991844, 0.9760000463575125, 0.0, 0.0, 0.0, 0.0, 0.0, 1.7404839225636854E9, 0.0, 2025-02-25 11:45:22.563
