%OpenBCI Raw EXG Data
%Number of channels = 4
%Sample Rate = 200 Hz
%Board = OpenBCI_GUI$BoardGanglionNative
Sample Index, EXG Channel 0, EXG Channel 1, EXG Channel 2, EXG Channel 3, Accel Channel 0, Accel Channel 1, Accel Channel 2, Other, Other, Other, Other, Other, Timestamp, Marker Channel, Timestamp (Formatted)
0.0, 209.11089617246762, 114.28386284597218, 11.085063468664885, 133.92768736323342, 0.0, 0.0, 0.0, 0.0, 0.0, 0.0, 0.0, 0.0, 1.7404842334899688E9, 0.0, 2025-02-25 11:50:33.489
1.0, 294.47411266108975, 140.0629932405427, 12.349149653688073, 188.05151952197775, 0.0, -0.01600000075995922, 0.0, 0.0, 0.0, 0.0, 0.0, 0.0, 1.74048423349145E9, 0.0, 2025-02-25 11:50:33.491
1.0, 463.1903494121507, 347.6180910314433, 14.92220082320273, 340.7161056632176, 0.0, -0.01600000075995922, 0.0, 0.0, 0.0, 0.0, 0.0, 0.0, 1.7404842334915445E9, 0.0, 2025-02-25 11:50:33.491
2.0, 353.0652553169057, 290.4499803087674, 14.017145033925772, 256.1494878651574, -0.01600000075995922, -0.01600000075995922, 0.0, 0.0, 0.0, 0.0, 0.0, 0.0, 1.7404842335208237E9, 0.0, 2025-02-25 11:50:33.520
2.0, 206.597683402244, 81.91876862943172, 10.84196997154504, 117.95457465248182, -0.01600000075995922, -0.01600000075995922, 0.0, 0.0, 0.0, 0.0, 0.0, 0.0, 1.740484233520889E9, 0.0, 2025-02-25 11:50:33.520
3.0, 333.75428189570084, 153.0703652864322, 16.268564807251096, 230.9444321137853, -0.01600000075995922, -0.01600000075995922, 0.0, 0.0, 0.0, 0.0, 0.0, 0.0, 1.740484233520993E9, 0.0, 2025-02-25 11:50:33.520
3.0, 464.20012240018696, 322.18677133275196, 18.228272384032607, 344.9870714126155, -0.01600000075995922, -0.01600000075995922, 0.0, 0.0, 0.0, 0.0, 0.0, 0.0, 1.7404842335210795E9, 0.0, 2025-02-25 11:50:33.521
4.0, 380.4712421922013, 284.6755747771822, 11.623609062284231, 279.92777178343385, -0.01600000075995922, -0.01600000075995922, 0.0, 0.0, 0.0, 0.0, 0.0, 0.0, 1.7404842335212116E9, 0.0, 2025-02-25 11:50:33.521
4.0, 216.49719858495519, 84.73117339611053, 10.415621376596391, 127.6334357378073, -0.01600000075995922, -0.01600000075995922, 0.0, 0.0, 0.0, 0.0, 0.0, 0.0, 1.7404842335212681E9, 0.0, 2025-02-25 11:50:33.521
5.0, 299.43695990229025, 111.2395842820406, 9.966833381913602, 193.67632905533537, -0.01600000075995922, -0.01600000075995922, 0.0, 0.0, 0.0, 0.0, 0.0, 0.0, 1.7404842335491068E9, 0.0, 2025-02-25 11:50:33.549
5.0, 481.4560207957402, 328.52590175764635, 10.759692172519863, 345.77619030326605, -0.01600000075995922, -0.01600000075995922, 0.0, 0.0, 0.0, 0.0, 0.0, 0.0, 1.7404842335492673E9, 0.0, 2025-02-25 11:50:33.549
6.0, 375.01472815684974, 282.6747283008881, 11.574990362860262, 257.8324428452179, -0.01600000075995922, -0.01600000075995922, 0.0, 0.0, 0.0, 0.0, 0.0, 0.0, 1.7404842335500512E9, 0.0, 2025-02-25 11:50:33.550
6.0, 191.79515937762335, 65.74744122102857, 8.927141194231808, 100.12273166375235, -0.01600000075995922, -0.01600000075995922, 0.0, 0.0, 0.0, 0.0, 0.0, 0.0, 1.740484233550208E9, 0.0, 2025-02-25 11:50:33.550
7.0, 324.8421003012918, 148.05889934580773, 9.043078092858195, 201.7021543602459, -0.01600000075995922, -0.01600000075995922, 0.0, 0.0, 0.0, 0.0, 0.0, 0.0, 1.7404842335503151E9, 0.0, 2025-02-25 11:50:33.550
7.0, 493.2329657562077, 367.1927273995243, 12.143455156125128, 339.25380478054285, -0.01600000075995922, -0.01600000075995922, 0.0, 0.0, 0.0, 0.0, 0.0, 0.0, 1.740484233550384E9, 0.0, 2025-02-25 11:50:33.550
8.0, 350.058375752531, 283.4152284921147, 9.25999229028821, 233.2575602363795, -0.01600000075995922, -0.01600000075995922, 0.0, 0.0, 0.0, 0.0, 0.0, 0.0, 1.740484233550461E9, 0.0, 2025-02-25 11:50:33.550
8.0, 206.83703699940816, 96.76991135347635, 9.753659084439278, 113.5190533050336, -0.01600000075995922, -0.01600000075995922, 0.0, 0.0, 0.0, 0.0, 0.0, 0.0, 1.7404842335505364E9, 0.0, 2025-02-25 11:50:33.550
9.0, 316.0645551052876, 159.76852610707283, 12.147195056080818, 197.8201382062398, -0.01600000075995922, -0.01600000075995922, 0.0, 0.0, 0.0, 0.0, 0.0, 0.0, 1.74048423357902E9, 0.0, 2025-02-25 11:50:33.579
9.0, 462.49846792034805, 345.27317375922576, 12.251912254840136, 335.1698340289295, -0.01600000075995922, -0.01600000075995922, 0.0, 0.0, 0.0, 0.0, 0.0, 0.0, 1.740484233579101E9, 0.0, 2025-02-25 11:50:33.579
10.0, 355.6121271867305, 298.6403612117283, 15.064317021518946, 257.11064215376973, -0.01600000075995922, -0.01600000075995922, 0.49600002355873585, 0.0, 0.0, 0.0, 0.0, 0.0, 1.7404842335796776E9, 0.0, 2025-02-25 11:50:33.579
10.0, 189.76813360163942, 74.34173131920397, 8.699007296934724, 109.53979975217953, -0.01600000075995922, -0.01600000075995922, 0.49600002355873585, 0.0, 0.0, 0.0, 0.0, 0.0, 1.740484233579769E9, 0.0, 2025-02-25 11:50:33.579
11.0, 300.7160056871362, 135.03656770009547, 12.173374355770648, 196.42889542272314, -0.01600000075995922, -0.01600000075995922, 0.49600002355873585, 0.0, 0.0, 0.0, 0.0, 0.0, 1.7404842336086075E9, 0.0, 2025-02-25 11:50:33.608
11.0, 475.90600926149637, 359.151942494791, 13.826410136185586, 376.04320064466447, -0.01600000075995922, -0.01600000075995922, 0.49600002355873585, 0.0, 0.0, 0.0, 0.0, 0.0, 1.740484233608687E9, 0.0, 2025-02-25 11:50:33.608
12.0, 341.4678255543113, 280.5691646258347, 12.678260849788785, 274.78540934436023, -0.01600000075995922, -0.01600000075995922, 0.49600002355873585, 0.0, 0.0, 0.0, 0.0, 0.0, 1.7404842336090093E9, 0.0, 2025-02-25 11:50:33.609
12.0, 154.59811441833153, 57.747795215807855, 9.166494791395962, 108.2906731669791, -0.01600000075995922, -0.01600000075995922, 0.49600002355873585, 0.0, 0.0, 0.0, 0.0, 0.0, 1.740484233609086E9, 0.0, 2025-02-25 11:50:33.609
13.0, 302.8664481616579, 162.3415772765875, 13.156968044117093, 246.7305498267524, -0.01600000075995922, -0.01600000075995922, 0.49600002355873585, 0.0, 0.0, 0.0, 0.0, 0.0, 1.740484233609583E9, 0.0, 2025-02-25 11:50:33.609
13.0, 455.4113575043157, 347.05336613813415, 17.113782197237015, 388.953335291706, -0.01600000075995922, -0.01600000075995922, 0.49600002355873585, 0.0, 0.0, 0.0, 0.0, 0.0, 1.7404842336103487E9, 0.0, 2025-02-25 11:50:33.610
14.0, 309.6263173315674, 259.6706036734395, 12.10231625661254, 260.9776987079531, -0.01600000075995922, -0.01600000075995922, 0.49600002355873585, 0.0, 0.0, 0.0, 0.0, 0.0, 1.7404842336107168E9, 0.0, 2025-02-25 11:50:33.610
14.0, 167.17913786927238, 103.40823377482593, 14.821223524399102, 140.80910328170285, -0.01600000075995922, -0.01600000075995922, 0.49600002355873585, 0.0, 0.0, 0.0, 0.0, 0.0, 1.7404842336107626E9, 0.0, 2025-02-25 11:50:33.610
15.0, 309.1943588866852, 185.14000740647316, 7.3863024124875665, 254.23278913786635, -0.01600000075995922, -0.01600000075995922, 0.49600002355873585, 0.0, 0.0, 0.0, 0.0, 0.0, 1.7404842336387613E9, 0.0, 2025-02-25 11:50:33.638
15.0, 446.8357669059187, 379.7101725512184, 11.907841458916664, 388.8972367923707, -0.01600000075995922, -0.01600000075995922, 0.49600002355873585, 0.0, 0.0, 0.0, 0.0, 0.0, 1.7404842336388724E9, 0.0, 2025-02-25 11:50:33.638
16.0, 358.3085950547829, 315.89625960728154, 11.754505560733378, 309.3794839344919, -0.01600000075995922, -0.01600000075995922, 0.49600002355873585, 0.0, 0.0, 0.0, 0.0, 0.0, 1.740484233668598E9, 0.0, 2025-02-25 11:50:33.668
16.0, 213.03779112594202, 78.42570207081735, 7.173128115013242, 169.84942643763497, -0.01600000075995922, -0.01600000075995922, 0.49600002355873585, 0.0, 0.0, 0.0, 0.0, 0.0, 1.7404842336686916E9, 0.0, 2025-02-25 11:50:33.668
17.0, 338.7358286366798, 146.67139646224678, 10.86814927123487, 291.9048013915308, -0.01600000075995922, -0.01600000075995922, 0.49600002355873585, 0.0, 0.0, 0.0, 0.0, 0.0, 1.740484233669028E9, 0.0, 2025-02-25 11:50:33.669
17.0, 511.6594528378919, -42.3917659977451, 16.4518199050799, 476.42585535533726, -0.01600000075995922, -0.01600000075995922, 0.49600002355873585, 0.0, 0.0, 0.0, 0.0, 0.0, 1.740484233669142E9, 0.0, 2025-02-25 11:50:33.669
18.0, 345.0543896118179, -66.13265091646463, 12.45386685244739, 323.32557086925954, -0.01600000075995922, -0.01600000075995922, 0.49600002355873585, 0.0, 0.0, 0.0, 0.0, 0.0, 1.740484233669564E9, 0.0, 2025-02-25 11:50:33.669
18.0, 147.51100400229916, 172.75719865318388, 8.639168897643685, 148.4983375906013, -0.01600000075995922, -0.01600000075995922, 0.49600002355873585, 0.0, 0.0, 0.0, 0.0, 0.0, 1.7404842336696537E9, 0.0, 2025-02-25 11:50:33.669
19.0, 325.5377216930501, 280.3541203783825, 13.504778739996254, 298.2401919164695, -0.01600000075995922, -0.01600000075995922, 0.49600002355873585, 0.0, 0.0, 0.0, 0.0, 0.0, 1.74048423367077E9, 0.0, 2025-02-25 11:50:33.670
19.0, 506.9359591938555, 466.51325052278116, 11.163601367734373, 446.01298891566694, -0.01600000075995922, -0.01600000075995922, 0.49600002355873585, 0.0, 0.0, 0.0, 0.0, 0.0, 1.7404842336708753E9, 0.0, 2025-02-25 11:50:33.670
20.0, 348.2707035737112, 336.64896446140483, 12.147195056080818, 284.7971215257421, -0.01600000075995922, -0.01600000075995922, 0.7520000357180834, 0.0, 0.0, 0.0, 0.0, 0.0, 1.740484233671016E9, 0.0, 2025-02-25 11:50:33.671
20.0, 210.8985683512874, 141.4056173246354, 11.470273164100945, 171.5024622180499, -0.01600000075995922, -0.01600000075995922, 0.7520000357180834, 0.0, 0.0, 0.0, 0.0, 0.0, 1.7404842336711092E9, 0.0, 2025-02-25 11:50:33.671
21.0, 372.5669636358507, 248.44529395643622, 14.944640222936869, 309.1644396870397, -0.01600000075995922, -0.01600000075995922, 0.7520000357180834, 0.0, 0.0, 0.0, 0.0, 0.0, 1.7404842336985621E9, 0.0, 2025-02-25 11:50:33.698
21.0, 528.8480330342427, 408.6158593087457, 10.292204678058624, 424.22059187386185, -0.01600000075995922, -0.01600000075995922, 0.7520000357180834, 0.0, 0.0, 0.0, 0.0, 0.0, 1.7404842336986413E9, 0.0, 2025-02-25 11:50:33.698
22.0, 371.8844318939373, 332.9913423047401, 12.842816447839141, 279.4939433885738, -0.03200000151991844, -0.01600000075995922, 0.7520000357180834, 0.0, 0.0, 0.0, 0.0, 0.0, 1.7404842336989477E9, 0.0, 2025-02-25 11:50:33.698
22.0, 182.61744488636032, 113.39750655647367, 10.325863777659833, 113.42555580614135, -0.03200000151991844, -0.01600000075995922, 0.7520000357180834, 0.0, 0.0, 0.0, 0.0, 0.0, 1.7404842336989975E9, 0.0, 2025-02-25 11:50:33.698
23.0, 342.412150293123, 179.7844706699252, 13.011111945845187, 232.20851829880849, -0.03200000151991844, -0.01600000075995922, 0.7520000357180834, 0.0, 0.0, 0.0, 0.0, 0.0, 1.7404842337289374E9, 0.0, 2025-02-25 11:50:33.728
23.0, 521.9553974159062, 374.3808151143603, 13.759091936983168, 378.4030775167048, -0.03200000151991844, -0.01600000075995922, 0.7520000357180834, 0.0, 0.0, 0.0, 0.0, 0.0, 1.740484233729071E9, 0.0, 2025-02-25 11:50:33.729
24.0, 308.6352438433096, 253.8400996425189, 9.420807988382876, 209.79716781433672, -0.03200000151991844, -0.01600000075995922, 0.7520000357180834, 0.0, 0.0, 0.0, 0.0, 0.0, 1.7404842337291613E9, 0.0, 2025-02-25 11:50:33.729
24.0, 128.91996132256463, 45.97833005525172, 9.203893790952861, 52.78681792458519, -0.03200000151991844, -0.01600000075995922, 0.7520000357180834, 0.0, 0.0, 0.0, 0.0, 0.0, 1.7404842337292168E9, 0.0, 2025-02-25 11:50:33.729
25.0, 316.08325460506603, 168.36281620524824, 13.433720640838146, 217.4957518731244, -0.03200000151991844, -0.01600000075995922, 0.7520000357180834, 0.0, 0.0, 0.0, 0.0, 0.0, 1.7404842337297568E9, 0.0, 2025-02-25 11:50:33.729
25.0, 475.32258486840874, 368.17632108787075, 13.964786434546113, 365.67619796749204, -0.03200000151991844, -0.01600000075995922, 0.7520000357180834, 0.0, 0.0, 0.0, 0.0, 0.0, 1.740484233729834E9, 0.0, 2025-02-25 11:50:33.729
26.0, 289.08304687496275, 239.6135202110745, 13.852589435875416, 198.81682154443115, -0.03200000151991844, -0.01600000075995922, 0.7520000357180834, 0.0, 0.0, 0.0, 0.0, 0.0, 1.7404842337303174E9, 0.0, 2025-02-25 11:50:33.730
26.0, 137.83588281692937, 47.713643634691834, 10.576437074691057, 63.47171209799126, -0.03200000151991844, -0.01600000075995922, 0.7520000357180834, 0.0, 0.0, 0.0, 0.0, 0.0, 1.7404842337305374E9, 0.0, 2025-02-25 11:50:33.730
27.0, 324.33721380727366, 174.44389353320003, 11.373035765253007, 224.2387914932333, -0.03200000151991844, -0.01600000075995922, 0.7520000357180834, 0.0, 0.0, 0.0, 0.0, 0.0, 1.7404842337588155E9, 0.0, 2025-02-25 11:50:33.758
27.0, 499.44119968265295, 367.57793709496036, 14.151781432330608, 360.0663480339572, -0.03200000151991844, -0.01600000075995922, 0.7520000357180834, 0.0, 0.0, 0.0, 0.0, 0.0, 1.7404842337590911E9, 0.0, 2025-02-25 11:50:33.759
28.0, 323.2245935704559, 261.82852594787255, 12.614682550542057, 188.70413206424564, -0.03200000151991844, -0.01600000075995922, 0.7520000357180834, 0.0, 0.0, 0.0, 0.0, 0.0, 1.7404842337593231E9, 0.0, 2025-02-25 11:50:33.759
28.0, 152.39905324438587, 77.30373208411038, 8.265178902074695, 43.25007303757593, -0.03200000151991844, -0.01600000075995922, 0.7520000357180834, 0.0, 0.0, 0.0, 0.0, 0.0, 1.740484233759416E9, 0.0, 2025-02-25 11:50:33.759
29.0, 321.85392023669556, 192.88160031475127, 9.331050389446318, 192.5917580681853, -0.03200000151991844, -0.01600000075995922, 0.7520000357180834, 0.0, 0.0, 0.0, 0.0, 0.0, 1.7404842337887857E9, 0.0, 2025-02-25 11:50:33.788
29.0, 523.0885871024802, 405.5117423455231, 11.137422068044543, 340.9068405609578, -0.03200000151991844, -0.01600000075995922, 0.7520000357180834, 0.0, 0.0, 0.0, 0.0, 0.0, 1.7404842337888527E9, 0.0, 2025-02-25 11:50:33.788
30.0, 305.7854400770739, 271.6719426312484, 3.7660792553797364, 139.05696015246212, -0.03200000151991844, -0.01600000075995922, 0.8800000417977571, 0.0, 0.0, 0.0, 0.0, 0.0, 1.740484233789048E9, 0.0, 2025-02-25 11:50:33.789
30.0, 123.72898018406704, 57.9160907138139, 10.980346269905567, -31.6638629748486, -0.03200000151991844, -0.01600000075995922, 0.8800000417977571, 0.0, 0.0, 0.0, 0.0, 0.0, 1.740484233789196E9, 0.0, 2025-02-25 11:50:33.789
31.0, 319.15745236864313, 179.59747567214072, 10.07529048062861, 128.39637532876804, -0.03200000151991844, -0.01600000075995922, 0.8800000417977571, 0.0, 0.0, 0.0, 0.0, 0.0, 1.740484233789791E9, 0.0, 2025-02-25 11:50:33.789
31.0, 485.0463247532025, 344.3681179699488, 11.829303559847176, 240.08661755546927, -0.03200000151991844, -0.01600000075995922, 0.8800000417977571, 0.0, 0.0, 0.0, 0.0, 0.0, 1.7404842337898417E9, 0.0, 2025-02-25 11:50:33.789
32.0, 277.7960288086906, 172.1756442100741, 12.629642150364816, 35.54026927892119, -0.03200000151991844, -0.01600000075995922, 0.8800000417977571, 0.0, 0.0, 0.0, 0.0, 0.0, 1.74048423379027E9, 0.0, 2025-02-25 11:50:33.790
32.0, 128.34775662934408, -31.310442429035902, 11.3019776660949, -89.6884107873775, -0.03200000151991844, -0.01600000075995922, 0.8800000417977571, 0.0, 0.0, 0.0, 0.0, 0.0, 1.7404842337903175E9, 0.0, 2025-02-25 11:50:33.790
33.0, 334.26290828967467, 115.66762582957745, 12.685740649700165, 116.11828377423808, -0.03200000151991844, -0.01600000075995922, 0.8800000417977571, 0.0, 0.0, 0.0, 0.0, 0.0, 1.740484233818554E9, 0.0, 2025-02-25 11:50:33.818
33.0, 516.2670095833018, 320.37291985424235, 11.178560967557132, 278.5739279994741, -0.03200000151991844, -0.01600000075995922, 0.8800000417977571, 0.0, 0.0, 0.0, 0.0, 0.0, 1.7404842338187103E9, 0.0, 2025-02-25 11:50:33.818
34.0, 317.32303144037724, 196.61215052055195, 6.03245862852782, 107.24537112936378, -0.03200000151991844, -0.01600000075995922, 0.8800000417977571, 0.0, 0.0, 0.0, 0.0, 0.0, 1.7404842338190024E9, 0.0, 2025-02-25 11:50:33.819
34.0, 137.61896861949936, 4.237306649796665, 7.932327806018293, -5.645378983113915, -0.03200000151991844, -0.01600000075995922, 0.8800000417977571, 0.0, 0.0, 0.0, 0.0, 0.0, 1.7404842338190825E9, 0.0, 2025-02-25 11:50:33.819
35.0, 333.0586605039425, 166.54522482678294, 12.812897248193622, 203.0410385443829, -0.03200000151991844, -0.01600000075995922, 0.8800000417977571, 0.0, 0.0, 0.0, 0.0, 0.0, 1.7404842338485644E9, 0.0, 2025-02-25 11:50:33.848
35.0, 505.62325430940837, 389.29179623769596, 13.400061541236937, 370.8110806066543, -0.03200000151991844, -0.01600000075995922, 0.8800000417977571, 0.0, 0.0, 0.0, 0.0, 0.0, 1.740484233848664E9, 0.0, 2025-02-25 11:50:33.848
36.0, 271.36340088490397, 250.4704497824423, 14.51455172803253, 175.39008822198957, -0.03200000151991844, -0.01600000075995922, 0.8800000417977571, 0.0, 0.0, 0.0, 0.0, 0.0, 1.740484233849202E9, 0.0, 2025-02-25 11:50:33.849
36.0, 70.48776441486552, 35.570188478566706, 15.640261614695191, 19.845779114868492, -0.03200000151991844, -0.01600000075995922, 0.8800000417977571, 0.0, 0.0, 0.0, 0.0, 0.0, 1.7404842338493571E9, 0.0, 2025-02-25 11:50:33.849
37.0, 284.62321617780253, 200.44367802515626, 13.830150036141276, 218.1614540652372, -0.03200000151991844, -0.01600000075995922, 0.8800000417977571, 0.0, 0.0, 0.0, 0.0, 0.0, 1.7404842338495877E9, 0.0, 2025-02-25 11:50:33.849
37.0, 461.16706353612244, 436.42575537925586, 16.47051940485835, 376.41345074027777, -0.03200000151991844, -0.01600000075995922, 0.8800000417977571, 0.0, 0.0, 0.0, 0.0, 0.0, 1.740484233849753E9, 0.0, 2025-02-25 11:50:33.849
38.0, 229.09879148565233, 293.011811778415, 12.588503250852227, 167.51385891530663, -0.03200000151991844, -0.01600000075995922, 0.8800000417977571, 0.0, 0.0, 0.0, 0.0, 0.0, 1.7404842338504379E9, 0.0, 2025-02-25 11:50:33.850
38.0, 65.16962667787448, 92.55504410341382, 9.615282786078751, 36.38735661888495, -0.03200000151991844, -0.01600000075995922, 0.8800000417977571, 0.0, 0.0, 0.0, 0.0, 0.0, 1.7404842338504915E9, 0.0, 2025-02-25 11:50:33.850
39.0, 307.29822960915044, 237.47616738639772, 12.420207752846181, 257.52764099882916, -0.03200000151991844, -0.01600000075995922, 0.8800000417977571, 0.0, 0.0, 0.0, 0.0, 0.0, 1.740484233878472E9, 0.0, 2025-02-25 11:50:33.878
39.0, 502.55653634574264, 418.61261189030483, 11.6722277617082, 402.54787163063884, -0.03200000151991844, -0.01600000075995922, 0.8800000417977571, 0.0, 0.0, 0.0, 0.0, 0.0, 1.7404842338785572E9, 0.0, 2025-02-25 11:50:33.878
40.0, 302.4419695166871, 262.4306498407386, 14.215359731577337, 203.7235702862963, -0.03200000151991844, -0.01600000075995922, 0.944000044837594, 0.0, 0.0, 0.0, 0.0, 0.0, 1.7404842338789706E9, 0.0, 2025-02-25 11:50:33.878
40.0, 130.5617774031125, 62.65080405771732, 11.425394364632666, 53.7105732136406, -0.03200000151991844, -0.01600000075995922, 0.944000044837594, 0.0, 0.0, 0.0, 0.0, 0.0, 1.7404842338790607E9, 0.0, 2025-02-25 11:50:33.879
41.0, 363.9427543380298, 222.7035625614226, 9.619022686034441, 268.444408969488, -0.03200000151991844, -0.01600000075995922, 0.944000044837594, 0.0, 0.0, 0.0, 0.0, 0.0, 1.7404842339087515E9, 0.0, 2025-02-25 11:50:33.908
41.0, 521.5814074203372, 425.8792375042103, 11.919061158783734, 407.09932987671345, -0.03200000151991844, -0.01600000075995922, 0.944000044837594, 0.0, 0.0, 0.0, 0.0, 0.0, 1.7404842339088447E9, 0.0, 2025-02-25 11:50:33.908
42.0, 282.3213077550754, 276.0775447790511, 8.45965369977057, 191.39686003234237, -0.03200000151991844, -0.01600000075995922, 0.944000044837594, 0.0, 0.0, 0.0, 0.0, 0.0, 1.740484233909142E9, 0.0, 2025-02-25 11:50:33.909
42.0, 129.0433780211024, 66.79835310857743, 7.098330115899444, 21.741908392403275, -0.03200000151991844, -0.01600000075995922, 0.944000044837594, 0.0, 0.0, 0.0, 0.0, 0.0, 1.7404842339092083E9, 0.0, 2025-02-25 11:50:33.909
43.0, 343.3695646817796, 217.34802582487464, 11.567510562948883, 206.1937742070295, -0.03200000151991844, -0.01600000075995922, 0.944000044837594, 0.0, 0.0, 0.0, 0.0, 0.0, 1.7404842339096086E9, 0.0, 2025-02-25 11:50:33.909
43.0, 560.5137659590691, 415.05222713248804, 12.689480549655855, 364.67390477936715, -0.03200000151991844, -0.01600000075995922, 0.944000044837594, 0.0, 0.0, 0.0, 0.0, 0.0, 1.7404842339096727E9, 0.0, 2025-02-25 11:50:33.909
44.0, 347.6498801810667, 252.70317005598918, 15.531804515980184, 148.3319120425731, -0.03200000151991844, -0.01600000075995922, 0.944000044837594, 0.0, 0.0, 0.0, 0.0, 0.0, 1.7404842339103856E9, 0.0, 2025-02-25 11:50:33.910
44.0, 164.168518404942, 10.318383977748454, 11.526371663436294, -27.662170022260398, -0.03200000151991844, -0.01600000075995922, 0.944000044837594, 0.0, 0.0, 0.0, 0.0, 0.0, 1.740484233910467E9, 0.0, 2025-02-25 11:50:33.910
45.0, 400.6984911025502, 184.14145411830395, 13.564617139287293, 198.72519399551675, -0.03200000151991844, -0.01600000075995922, 0.944000044837594, 0.0, 0.0, 0.0, 0.0, 0.0, 1.7404842339388895E9, 0.0, 2025-02-25 11:50:33.938
45.0, 592.186978683807, 387.3171290610917, 14.649188126437366, 348.1697262749076, -0.03200000151991844, -0.01600000075995922, 0.944000044837594, 0.0, 0.0, 0.0, 0.0, 0.0, 1.740484233938982E9, 0.0, 2025-02-25 11:50:33.938
46.0, 357.70647116191685, 226.56126936571673, 15.28871101886034, 134.68501710426062, -0.03200000151991844, -0.01600000075995922, 0.944000044837594, 0.0, 0.0, 0.0, 0.0, 0.0, 1.7404842339392009E9, 0.0, 2025-02-25 11:50:33.939
46.0, 152.99369733734056, 9.046817992813885, 13.732912637293339, -27.97258171858266, -0.03200000151991844, -0.01600000075995922, 0.944000044837594, 0.0, 0.0, 0.0, 0.0, 0.0, 1.7404842339394028E9, 0.0, 2025-02-25 11:50:33.939
47.0, 390.43994552409276, 174.69820673018694, 13.467379740439355, 201.07011126773432, -0.03200000151991844, -0.01600000075995922, 0.944000044837594, 0.0, 0.0, 0.0, 0.0, 0.0, 1.740484233968926E9, 0.0, 2025-02-25 11:50:33.968
47.0, 587.3999067405239, 399.4680640171282, 14.529511327855289, 373.09241957962513, -0.03200000151991844, -0.01600000075995922, 0.944000044837594, 0.0, 0.0, 0.0, 0.0, 0.0, 1.740484233969021E9, 0.0, 2025-02-25 11:50:33.969
48.0, 823.8644311889075, 225.40564027940854, 12.05743745714426, 140.31730643752962, -0.03200000151991844, -0.01600000075995922, 0.944000044837594, 0.0, 0.0, 0.0, 0.0, 0.0, 1.7404842339693248E9, 0.0, 2025-02-25 11:50:33.969
48.0, 620.2137889517471, 18.796737177297473, 13.216806443408132, -7.373212762642652, -0.03200000151991844, -0.01600000075995922, 0.944000044837594, 0.0, 0.0, 0.0, 0.0, 0.0, 1.740484233969394E9, 0.0, 2025-02-25 11:50:33.969
49.0, 378.50592476548627, 191.1275872355327, 10.995305869728327, 221.5348438252695, -0.03200000151991844, -0.01600000075995922, 0.944000044837594, 0.0, 0.0, 0.0, 0.0, 0.0, 1.7404842339695356E9, 0.0, 2025-02-25 11:50:33.969
49.0, 554.8665170259774, 404.6179062561132, 14.772604824975133, 384.9553822390735, -0.03200000151991844, -0.01600000075995922, 0.944000044837594, 0.0, 0.0, 0.0, 0.0, 0.0, 1.740484233969601E9, 0.0, 2025-02-25 11:50:33.969
50.0, 334.10396254155785, 266.1518502966501, 14.555690627545118, 194.59073459450155, -0.03200000151991844, -0.01600000075995922, 0.9760000463575125, 0.0, 0.0, 0.0, 0.0, 0.0, 1.740484233971463E9, 0.0, 2025-02-25 11:50:33.971
50.0, 122.4835934988223, 29.80326274689287, 11.604909562505782, 12.837206597905606, -0.03200000151991844, -0.01600000075995922, 0.9760000463575125, 0.0, 0.0, 0.0, 0.0, 0.0, 1.7404842339717305E9, 0.0, 2025-02-25 11:50:33.971
51.0, 361.09295057179406, 184.74357801117003, 9.753659084439278, 238.47659062454477, -0.03200000151991844, -0.01600000075995922, 0.9760000463575125, 0.0, 0.0, 0.0, 0.0, 0.0, 1.7404842339990249E9, 0.0, 2025-02-25 11:50:33.999
51.0, 575.6005223803222, 425.183616112452, 10.744732572697103, 443.2192836487666, -0.03200000151991844, -0.01600000075995922, 0.9760000463575125, 0.0, 0.0, 0.0, 0.0, 0.0, 1.7404842339991293E9, 0.0, 2025-02-25 11:50:33.999
52.0, 334.0478640422225, 252.14966486254707, 11.754505560733378, 230.224501372315, -0.03200000151991844, -0.01600000075995922, 0.9760000463575125, 0.0, 0.0, 0.0, 0.0, 0.0, 1.7404842339992278E9, 0.0, 2025-02-25 11:50:33.999
52.0, 111.10307793365791, 494.3194066933356, 16.0441708099097, 34.00878024706617, -0.03200000151991844, -0.01600000075995922, 0.9760000463575125, 0.0, 0.0, 0.0, 0.0, 0.0, 1.7404842339993105E9, 0.0, 2025-02-25 11:50:33.999
53.0, -122.31342805083841, 688.5885098916478, 13.2654251428321, -203.19998429249972, -0.03200000151991844, -0.01600000075995922, 0.9760000463575125, 0.0, 0.0, 0.0, 0.0, 0.0, 1.7404842340306468E9, 0.0, 2025-02-25 11:50:34.030
53.0, 75.3159752576612, 903.0063241012394, 11.934020758606493, -24.636590958107263, -0.03200000151991844, -0.01600000075995922, 0.9760000463575125, 0.0, 0.0, 0.0, 0.0, 0.0, 1.7404842340307372E9, 0.0, 2025-02-25 11:50:34.030
54.0, 315.3708036635071, 729.026178162545, 13.590796438977122, -260.8000534600578, -0.03200000151991844, -0.01600000075995922, 0.9760000463575125, 0.0, 0.0, 0.0, 0.0, 0.0, 1.740484234030984E9, 0.0, 2025-02-25 11:50:34.030
54.0, 111.83609832497314, 499.2523347348906, 12.308010754175484, -457.2962670819834, -0.03200000151991844, -0.01600000075995922, 0.9760000463575125, 0.0, 0.0, 0.0, 0.0, 0.0, 1.7404842340310535E9, 0.0, 2025-02-25 11:50:34.031
55.0, -126.40487860236317, 663.2282482921146, 13.179407443851233, -225.05595963355154, -0.03200000151991844, -0.01600000075995922, 0.9760000463575125, 0.0, 0.0, 0.0, 0.0, 0.0, 1.7404842340311284E9, 0.0, 2025-02-25 11:50:34.031
55.0, 95.99388211267069, 889.684800459072, 10.87188917119056, -39.90286257723346, -0.03200000151991844, -0.01600000075995922, 0.9760000463575125, 0.0, 0.0, 0.0, 0.0, 0.0, 1.7404842340311987E9, 0.0, 2025-02-25 11:50:34.031
56.0, -126.4478874518536, 707.8807838130742, 12.603462850674987, -270.3330584471114, -0.03200000151991844, -0.01600000075995922, 0.9760000463575125, 0.0, 0.0, 0.0, 0.0, 0.0, 1.7404842340312717E9, 0.0, 2025-02-25 11:50:34.031
56.0, -364.89081897679716, 480.81836785329506, 7.356383212842047, -458.97174226213247, -0.03200000151991844, -0.01600000075995922, 0.9760000463575125, 0.0, 0.0, 0.0, 0.0, 0.0, 1.7404842340313413E9, 0.0, 2025-02-25 11:50:34.031
57.0, -152.83101168926805, 677.5258858227171, 10.112689480185509, -222.27347406651825, -0.03200000151991844, -0.01600000075995922, 0.9760000463575125, 0.0, 0.0, 0.0, 0.0, 0.0, 1.7404842340585628E9, 0.0, 2025-02-25 11:50:34.058
57.0, 78.27423612261191, 464.0075175524689, 11.601169662550092, -30.216521691996604, -0.03200000151991844, -0.01600000075995922, 0.9760000463575125, 0.0, 0.0, 0.0, 0.0, 0.0, 1.7404842340586421E9, 0.0, 2025-02-25 11:50:34.058
58.0, 288.82499377802014, 237.7211308334954, 12.06865715701133, 208.93699082452804, -0.03200000151991844, -0.01600000075995922, 0.9760000463575125, 0.0, 0.0, 0.0, 0.0, 0.0, 1.7404842340591247E9, 0.0, 2025-02-25 11:50:34.059
58.0, 533.1563977831975, 467.7960362075828, 13.205586743541062, 21.446456295903772, -0.03200000151991844, -0.01600000075995922, 0.9760000463575125, 0.0, 0.0, 0.0, 0.0, 0.0, 1.7404842340592132E9, 0.0, 2025-02-25 11:50:34.059
59.0, 321.15829884493724, 688.4164744936861, 13.830150036141276, -205.5037626652047, -0.03200000151991844, -0.01600000075995922, 0.9760000463575125, 0.0, 0.0, 0.0, 0.0, 0.0, 1.7404842340887527E9, 0.0, 2025-02-25 11:50:34.088
59.0, 535.4265170563012, 915.6210066517815, 11.627348962239921, -20.227248910348862, -0.03200000151991844, -0.01600000075995922, 0.9760000463575125, 0.0, 0.0, 0.0, 0.0, 0.0, 1.7404842340888567E9, 0.0, 2025-02-25 11:50:34.088
60.0, 754.0778980157338, 718.7676325840876, 9.742439384572208, 213.0284413760528, -0.03200000151991844, -0.01600000075995922, 0.9760000463575125, 0.0, 0.0, 0.0, 0.0, 0.0, 1.7404842340890234E9, 0.0, 2025-02-25 11:50:34.089
60.0, 531.0770134078339, 476.730657201726, 12.322970353998244, 30.500754088629037, -0.03200000151991844, -0.01600000075995922, 0.9760000463575125, 0.0, 0.0, 0.0, 0.0, 0.0, 1.7404842340891116E9, 0.0, 2025-02-25 11:50:34.089
61.0, 299.1302881059237, 669.2345276209526, 7.0646710162982345, -199.29552873875946, -0.03200000151991844, -0.01600000075995922, 0.9760000463575125, 0.0, 0.0, 0.0, 0.0, 0.0, 1.74048423409066E9, 0.0, 2025-02-25 11:50:34.090
61.0, 54.279038006905466, 426.6272174953483, 19.33528277091682, 15.260661769192666, -0.03200000151991844, -0.01600000075995922, 0.9760000463575125, 0.0, 0.0, 0.0, 0.0, 0.0, 1.7404842340907867E9, 0.0, 2025-02-25 11:50:34.090
62.0, 291.6299187447876, 264.2557210191153, 15.25879181921482, 249.79165794048458, -0.03200000151991844, -0.01600000075995922, 0.9760000463575125, 0.0, 0.0, 0.0, 0.0, 0.0, 1.7404842340910046E9, 0.0, 2025-02-25 11:50:34.091
62.0, 52.43152742879465, 41.02670251391828, 8.212820302695036, 32.991527459118515, -0.03200000151991844, -0.01600000075995922, 0.9760000463575125, 0.0, 0.0, 0.0, 0.0, 0.0, 1.7404842340910692E9, 0.0, 2025-02-25 11:50:34.091
63.0, -178.32216978725046, 261.2357518048957, 14.181700631976128, -200.1669254284352, -0.03200000151991844, -0.01600000075995922, 0.9760000463575125, 0.0, 0.0, 0.0, 0.0, 0.0, 1.7404842341186242E9, 0.0, 2025-02-25 11:50:34.118
63.0, 64.29075018828735, 501.5448934077285, 16.45929970499128, -6.584093871992081, -0.03200000151991844, -0.01600000075995922, 0.9760000463575125, 0.0, 0.0, 0.0, 0.0, 0.0, 1.7404842341188824E9, 0.0, 2025-02-25 11:50:34.118
64.0, 251.84486301615834, 287.4094416447915, 14.630488626658916, 212.60209278110415, -0.03200000151991844, -0.01600000075995922, 0.9760000463575125, 0.0, 0.0, 0.0, 0.0, 0.0, 1.7404842341190352E9, 0.0, 2025-02-25 11:50:34.119
64.0, 40.31799147231504, 528.879822183866, 11.945240458473563, 18.117945335339755, -0.03200000151991844, -0.01600000075995922, 0.9760000463575125, 0.0, 0.0, 0.0, 0.0, 0.0, 1.7404842341191573E9, 0.0, 2025-02-25 11:50:34.119
65.0, -160.27715250104666, 746.54947940493, 14.87732202373445, -192.74696391634643, -0.03200000151991844, -0.01600000075995922, 0.9760000463575125, 0.0, 0.0, 0.0, 0.0, 0.0, 1.740484234148929E9, 0.0, 2025-02-25 11:50:34.148
65.0, 56.44070018129423, 976.9778053248301, 15.636521714739501, -2.129873024765402, -0.03200000151991844, -0.01600000075995922, 0.9760000463575125, 0.0, 0.0, 0.0, 0.0, 0.0, 1.7404842341490705E9, 0.0, 2025-02-25 11:50:34.149
66.0, 259.77345092222095, 774.5632000230253, 12.50248555187136, 224.15090384427458, -0.03200000151991844, -0.01600000075995922, 0.9760000463575125, 0.0, 0.0, 0.0, 0.0, 0.0, 1.7404842341494277E9, 0.0, 2025-02-25 11:50:34.149
66.0, 48.254059178289026, 542.4070403235964, 13.209326643496752, 25.702462445478886, -0.03200000151991844, -0.01600000075995922, 0.9760000463575125, 0.0, 0.0, 0.0, 0.0, 0.0, 1.7404842341494915E9, 0.0, 2025-02-25 11:50:34.149
67.0, -141.0989455282688, 761.7559126247652, 13.631935338489711, -195.10310088843107, -0.03200000151991844, -0.01600000075995922, 0.9760000463575125, 0.0, 0.0, 0.0, 0.0, 0.0, 1.740484234150144E9, 0.0, 2025-02-25 11:50:34.150
67.0, 100.45932265976444, 1003.3328803125769, 14.379915329627693, -9.280561740044504, -0.03200000151991844, -0.01600000075995922, 0.9760000463575125, 0.0, 0.0, 0.0, 0.0, 0.0, 1.7404842341502728E9, 0.0, 2025-02-25 11:50:34.150
68.0, 306.30528617091477, 799.8037848239765, 3.455667559057474, 193.74551720451564, -0.03200000151991844, -0.01600000075995922, 0.9760000463575125, 0.0, 0.0, 0.0, 0.0, 0.0, 1.7404842341505032E9, 0.0, 2025-02-25 11:50:34.150
68.0, 78.50610991986468, 1018.7001292305067, 10.243585978634655, -35.070911834482104, -0.03200000151991844, -0.01600000075995922, 0.9760000463575125, 0.0, 0.0, 0.0, 0.0, 0.0, 1.7404842341505604E9, 0.0, 2025-02-25 11:50:34.150
69.0, -132.55327412951738, 1207.1723874974996, 11.788164660334587, -265.7273716516793, -0.03200000151991844, -0.01600000075995922, 0.9760000463575125, 0.0, 0.0, 0.0, 0.0, 0.0, 1.7404842341788604E9, 0.0, 2025-02-25 11:50:34.178
69.0, 110.4785146410577, 1438.5543879061006, 14.271458230912685, -64.83677558181807, -0.03200000151991844, -0.01600000075995922, 0.9760000463575125, 0.0, 0.0, 0.0, 0.0, 0.0, 1.7404842341789608E9, 0.0, 2025-02-25 11:50:34.178
70.0, 297.920430470258, 1682.1883005695418, 12.588503250852227, 122.354566950351, -0.03200000151991844, -0.01600000075995922, 0.9760000463575125, 0.0, 0.0, 0.0, 0.0, 0.0, 1.7404842341790395E9, 0.0, 2025-02-25 11:50:34.179
70.0, 59.66075404314324, 1917.2297930847853, 13.979746034368873, -90.97867627209052, -0.03200000151991844, -0.01600000075995922, 0.9760000463575125, 0.0, 0.0, 0.0, 0.0, 0.0, 1.7404842341791084E9, 0.0, 2025-02-25 11:50:34.179
71.0, -127.73254308663309, 2143.347884305753, 13.497298940084875, -293.2156363260001, -0.03200000151991844, -0.01600000075995922, 0.9760000463575125, 0.0, 0.0, 0.0, 0.0, 0.0, 1.740484234208616E9, 0.0, 2025-02-25 11:50:34.208
71.0, 96.96251620119438, 2375.320788907353, 10.06781068071723, -89.10124649433419, -0.03200000151991844, -0.01600000075995922, 0.9760000463575125, 0.0, 0.0, 0.0, 0.0, 0.0, 1.7404842342087767E9, 0.0, 2025-02-25 11:50:34.208
72.0, 290.2050168616697, 2143.1702390578575, 10.09398998040706, 101.1605539014563, -0.03200000151991844, -0.01600000075995922, 0.9760000463575125, 0.0, 0.0, 0.0, 0.0, 0.0, 1.7404842342090414E9, 0.0, 2025-02-25 11:50:34.209
72.0, 64.73579828301445, 1903.9120093425736, 8.612989597953856, -106.14771049236879, -0.03200000151991844, -0.01600000075995922, 0.9760000463575125, 0.0, 0.0, 0.0, 0.0, 0.0, 1.7404842342091193E9, 0.0, 2025-02-25 11:50:34.209
73.0, -114.0145900491625, 2143.912609199062, 13.28038474265486, -306.0621926737949, -0.03200000151991844, -0.01600000075995922, 0.9760000463575125, 0.0, 0.0, 0.0, 0.0, 0.0, 1.7404842342098444E9, 0.0, 2025-02-25 11:50:34.209
73.0, 129.9372141105123, 1912.13230944518, 9.705040385015309, -93.83595983823761, -0.03200000151991844, -0.01600000075995922, 0.9760000463575125, 0.0, 0.0, 0.0, 0.0, 0.0, 1.740484234210193E9, 0.0, 2025-02-25 11:50:34.210
74.0, 312.36018419917673, 1670.6768885059282, 16.335883006453514, 92.40544810518622, -0.03200000151991844, -0.01600000075995922, 0.9760000463575125, 0.0, 0.0, 0.0, 0.0, 0.0, 1.7404842342104635E9, 0.0, 2025-02-25 11:50:34.210
74.0, 67.36868785182014, 1427.0841147419997, 11.818083859980106, -96.18087711045519, -0.03200000151991844, -0.01600000075995922, 0.9760000463575125, 0.0, 0.0, 0.0, 0.0, 0.0, 1.7404842342105308E9, 0.0, 2025-02-25 11:50:34.210
75.0, -122.72107714600861, 1651.2798973857425, 10.793351272121072, -284.4268714301288, -0.03200000151991844, -0.01600000075995922, 0.9760000463575125, 0.0, 0.0, 0.0, 0.0, 0.0, 1.7404842342386663E9, 0.0, 2025-02-25 11:50:34.238
75.0, 111.73138112621382, 1895.138204046525, 8.803724495694041, -73.2403307822533, -0.03200000151991844, -0.01600000075995922, 0.9760000463575125, 0.0, 0.0, 0.0, 0.0, 0.0, 1.7404842342387464E9, 0.0, 2025-02-25 11:50:34.238
76.0, 277.26870291493833, 1675.0600512539968, 12.595983050763607, 120.4659174727276, -0.03200000151991844, -0.01600000075995922, 0.9760000463575125, 0.0, 0.0, 0.0, 0.0, 0.0, 1.7404842342389228E9, 0.0, 2025-02-25 11:50:34.238
76.0, 502.2835236489773, 1914.6567419152707, 12.48378605209291, -90.05118108307943, -0.03200000151991844, -0.01600000075995922, 0.9760000463575125, 0.0, 0.0, 0.0, 0.0, 0.0, 1.740484234238986E9, 0.0, 2025-02-25 11:50:34.238
77.0, 298.25889141624793, 1684.4976887921803, 14.723986125551164, -270.0506960004568, -0.03200000151991844, -0.01600000075995922, 0.9760000463575125, 0.0, 0.0, 0.0, 0.0, 0.0, 1.7404842342690783E9, 0.0, 2025-02-25 11:50:34.269
77.0, 62.196406213101, 1451.273787655402, 12.173374355770648, -57.181200372520834, -0.03200000151991844, -0.01600000075995922, 0.9760000463575125, 0.0, 0.0, 0.0, 0.0, 0.0, 1.7404842342694538E9, 0.0, 2025-02-25 11:50:34.269
78.0, 258.120415141806, 1232.6429761457257, 8.695267396979034, 144.26664079073817, -0.03200000151991844, -0.01600000075995922, 0.9760000463575125, 0.0, 0.0, 0.0, 0.0, 0.0, 1.7404842342696407E9, 0.0, 2025-02-25 11:50:34.269
78.0, 17.94217003742233, 1472.0751112089492, 9.308610989712179, -76.51274324348196, -0.03200000151991844, -0.01600000075995922, 0.9760000463575125, 0.0, 0.0, 0.0, 0.0, 0.0, 1.7404842342697265E9, 0.0, 2025-02-25 11:50:34.269
79.0, -148.07759884558618, 1709.73079379322, 10.48293957579881, -270.192812198773, -0.03200000151991844, -0.01600000075995922, 0.9760000463575125, 0.0, 0.0, 0.0, 0.0, 0.0, 1.740484234269858E9, 0.0, 2025-02-25 11:50:34.269
79.0, -353.2447705147788, 1467.1496629673056, 15.68140051420778, -52.44274712866172, -0.03200000151991844, -0.01600000075995922, 0.9760000463575125, 0.0, 0.0, 0.0, 0.0, 0.0, 1.7404842342699142E9, 0.0, 2025-02-25 11:50:34.269
80.0, -170.97887622425333, 1696.7589507969096, 6.189534426666796, 112.99359736125916, -0.03200000151991844, -0.01600000075995922, 0.9920000471174717, 0.0, 0.0, 0.0, 0.0, 0.0, 1.7404842342703555E9, 0.0, 2025-02-25 11:50:34.270
80.0, -410.24832563940436, 1890.616665000096, 11.096283168531954, -121.79171200701967, -0.03200000151991844, -0.01600000075995922, 0.9920000471174717, 0.0, 0.0, 0.0, 0.0, 0.0, 1.7404842342704551E9, 0.0, 2025-02-25 11:50:34.270
81.0, -558.5297490325756, 2115.567907434888, 7.472320111468434, -298.8105266597122, -0.03200000151991844, -0.01600000075995922, 0.9920000471174717, 0.0, 0.0, 0.0, 0.0, 0.0, 1.7404842342989516E9, 0.0, 2025-02-25 11:50:34.298
81.0, -775.9301334568299, 2352.2643056805246, 15.475706016644835, -61.38858782267198, -0.03200000151991844, -0.01600000075995922, 0.9920000471174717, 0.0, 0.0, 0.0, 0.0, 0.0, 1.7404842342990642E9, 0.0, 2025-02-25 11:50:34.299
82.0, -609.0501875840127, 2592.9848362784833, 15.344809518195689, 145.5494264755398, -0.03200000151991844, -0.01600000075995922, 0.9920000471174717, 0.0, 0.0, 0.0, 0.0, 0.0, 1.7404842342991908E9, 0.0, 2025-02-25 11:50:34.299
82.0, -403.94659421406686, 2790.2832584409043, 11.720846461132169, -82.33576747449115, -0.03200000151991844, -0.01600000075995922, 0.9920000471174717, 0.0, 0.0, 0.0, 0.0, 0.0, 1.7404842342992737E9, 0.0, 2025-02-25 11:50:34.299
83.0, -570.923777485732, 2550.280788634438, 12.214513255283237, -241.21980724204332, -0.03200000151991844, -0.01600000075995922, 0.9920000471174717, 0.0, 0.0, 0.0, 0.0, 0.0, 1.7404842343287008E9, 0.0, 2025-02-25 11:50:34.328
83.0, -796.8249545092694, 2321.275494647678, 13.29534434247762, -8.349326651077718, -0.03200000151991844, -0.01600000075995922, 0.9920000471174717, 0.0, 0.0, 0.0, 0.0, 0.0, 1.7404842343288007E9, 0.0, 2025-02-25 11:50:34.328
84.0, -631.2352741211653, 2077.662151433993, 11.305717566050589, 186.24701779335737, -0.03200000151991844, -0.01600000075995922, 0.9920000471174717, 0.0, 0.0, 0.0, 0.0, 0.0, 1.7404842343289876E9, 0.0, 2025-02-25 11:50:34.328
84.0, -399.64570926502347, 2308.8328474950977, 13.171927643939853, -45.61742970952764, -0.03200000151991844, -0.01600000075995922, 0.9920000471174717, 0.0, 0.0, 0.0, 0.0, 0.0, 1.7404842343290553E9, 0.0, 2025-02-25 11:50:34.329
85.0, -568.354466216173, 2552.3265139102004, 11.391735265031457, -220.90093078278005, -0.03200000151991844, -0.01600000075995922, 0.9920000471174717, 0.0, 0.0, 0.0, 0.0, 0.0, 1.7404842343297207E9, 0.0, 2025-02-25 11:50:34.329
85.0, -772.9494331921451, 2347.724067134317, 11.717106561176479, -452.1464248429984, -0.03200000151991844, -0.01600000075995922, 0.9920000471174717, 0.0, 0.0, 0.0, 0.0, 0.0, 1.7404842343298025E9, 0.0, 2025-02-25 11:50:34.329
86.0, -614.6899567171931, 2587.184251447208, 15.004478622227907, -284.94484757399186, -0.03200000151991844, -0.01600000075995922, 0.9920000471174717, 0.0, 0.0, 0.0, 0.0, 0.0, 1.7404842343303316E9, 0.0, 2025-02-25 11:50:34.330
86.0, -441.15485887322575, 2773.850138035603, 16.43686030525714, -55.543124191928655, -0.03200000151991844, -0.01600000075995922, 0.9920000471174717, 0.0, 0.0, 0.0, 0.0, 0.0, 1.7404842343306928E9, 0.0, 2025-02-25 11:50:34.330
87.0, -621.3675480880775, 3003.805366611108, 9.959353582002223, -255.20329317636788, -0.03200000151991844, -0.01600000075995922, 0.9920000471174717, 0.0, 0.0, 0.0, 0.0, 0.0, 1.740484234358752E9, 0.0, 2025-02-25 11:50:34.358
87.0, -816.6426843744703, 2817.71542461589, 13.108349344693124, -475.4123424673453, -0.03200000151991844, -0.01600000075995922, 0.9920000471174717, 0.0, 0.0, 0.0, 0.0, 0.0, 1.7404842343588672E9, 0.0, 2025-02-25 11:50:34.358
88.0, -655.7914572302252, 2582.412139103748, 17.25589839555323, -295.02761785453185, -0.03200000151991844, -0.01600000075995922, 0.9920000471174717, 0.0, 0.0, 0.0, 0.0, 0.0, 1.7404842343589537E9, 0.0, 2025-02-25 11:50:34.358
88.0, -463.4072636095807, 2791.1284758308902, 10.180007679387927, -58.55000375630334, -0.03200000151991844, -0.01600000075995922, 0.9920000471174717, 0.0, 0.0, 0.0, 0.0, 0.0, 1.7404842343590293E9, 0.0, 2025-02-25 11:50:34.359
89.0, -628.8436080995016, 2562.1437512938865, 14.196660231798887, -224.85400503594428, -0.03200000151991844, -0.01600000075995922, 0.9920000471174717, 0.0, 0.0, 0.0, 0.0, 0.0, 1.740484234388402E9, 0.0, 2025-02-25 11:50:34.388
89.0, -855.5600833133794, 2359.0297847003676, 17.32695649471134, -454.6671174131334, -0.03200000151991844, -0.01600000075995922, 0.9920000471174717, 0.0, 0.0, 0.0, 0.0, 0.0, 1.7404842343884883E9, 0.0, 2025-02-25 11:50:34.388
90.0, -687.2440158575773, 2115.0835903906263, 11.862962659448385, -266.7651938893832, -0.03200000151991844, -0.01600000075995922, 0.9920000471174717, 0.0, 0.0, 0.0, 0.0, 0.0, 1.740484234389079E9, 0.0, 2025-02-25 11:50:34.389
90.0, -464.6975290942937, 2332.8804042101838, 12.764278548769653, -509.1387602677569, -0.03200000151991844, -0.01600000075995922, 0.9920000471174717, 0.0, 0.0, 0.0, 0.0, 0.0, 1.740484234389218E9, 0.0, 2025-02-25 11:50:34.389
91.0, -651.4101644321345, 2574.1338705518283, 11.141161968000233, -676.2954587372951, -0.03200000151991844, -0.01600000075995922, 0.9920000471174717, 0.0, 0.0, 0.0, 0.0, 0.0, 1.7404842343895628E9, 0.0, 2025-02-25 11:50:34.389
91.0, -851.5696100606583, 2377.5796884805895, 15.658961114473641, -910.7834460590966, -0.03200000151991844, -0.01600000075995922, 0.9920000471174717, 0.0, 0.0, 0.0, 0.0, 0.0, 1.7404842343896427E9, 0.0, 2025-02-25 11:50:34.389
92.0, -671.5102567439899, 2151.9964029532857, 10.47919967584312, -709.1411300981417, -0.03200000151991844, -0.01600000075995922, 0.9920000471174717, 0.0, 0.0, 0.0, 0.0, 0.0, 1.7404842343903377E9, 0.0, 2025-02-25 11:50:34.390
92.0, -482.495712983422, 2346.57591784792, 12.248172354884446, -476.94944134913385, -0.03200000151991844, -0.01600000075995922, 0.9920000471174717, 0.0, 0.0, 0.0, 0.0, 0.0, 1.7404842343904145E9, 0.0, 2025-02-25 11:50:34.390
93.0, -657.928810054902, 2583.9735473352484, 13.119569044560194, -655.6325114821084, -0.03200000151991844, -0.01600000075995922, 0.9920000471174717, 0.0, 0.0, 0.0, 0.0, 0.0, 1.7404842344188612E9, 0.0, 2025-02-25 11:50:34.418
93.0, -823.9691483876668, 2401.3804117986, 14.211619831621647, -853.9781056321226, -0.03200000151991844, -0.01600000075995922, 0.9920000471174717, 0.0, 0.0, 0.0, 0.0, 0.0, 1.740484234418954E9, 0.0, 2025-02-25 11:50:34.418
94.0, -665.7582906121388, 2629.6246361443773, 10.165048079565167, -706.291326331906, -0.03200000151991844, -0.01600000075995922, 0.9920000471174717, 0.0, 0.0, 0.0, 0.0, 0.0, 1.7404842344190917E9, 0.0, 2025-02-25 11:50:34.419
94.0, -469.13679034169763, 2826.7659825086594, 12.240692554973066, -477.6076637413353, -0.03200000151991844, -0.01600000075995922, 0.9920000471174717, 0.0, 0.0, 0.0, 0.0, 0.0, 1.7404842344191475E9, 0.0, 2025-02-25 11:50:34.419
95.0, -629.6850855895318, 2588.210853985045, 9.039338192902505, -633.1220536488108, -0.03200000151991844, -0.01600000075995922, 0.9920000471174717, 0.0, 0.0, 0.0, 0.0, 0.0, 1.7404842344485805E9, 0.0, 2025-02-25 11:50:34.448
95.0, -845.4324342333712, 2392.2849751063623, 9.996752581559122, -866.0916415886022, -0.03200000151991844, -0.01600000075995922, 0.9920000471174717, 0.0, 0.0, 0.0, 0.0, 0.0, 1.740484234448658E9, 0.0, 2025-02-25 11:50:34.448
96.0, -657.4557127105072, 2161.701443338301, 13.530958039686084, -689.4094179319218, -0.03200000151991844, -0.01600000075995922, 0.9920000471174717, 0.0, 0.0, 0.0, 0.0, 0.0, 1.7404842344490972E9, 0.0, 2025-02-25 11:50:34.449
96.0, -463.49328130856156, 2340.2068682233803, 16.46677950490266, -474.95233477279544, -0.03200000151991844, -0.01600000075995922, 0.9920000471174717, 0.0, 0.0, 0.0, 0.0, 0.0, 1.740484234449176E9, 0.0, 2025-02-25 11:50:34.449
97.0, -650.0002221488394, 2580.8021121728234, 12.382808753289282, -648.5491409660317, -0.03200000151991844, -0.01600000075995922, 0.9920000471174717, 0.0, 0.0, 0.0, 0.0, 0.0, 1.740484234449735E9, 0.0, 2025-02-25 11:50:34.449
97.0, -817.6262780628167, 2397.2403425476514, 13.216806443408132, -867.0864549768157, -0.03200000151991844, -0.01600000075995922, 0.9920000471174717, 0.0, 0.0, 0.0, 0.0, 0.0, 1.7404842344498172E9, 0.0, 2025-02-25 11:50:34.449
98.0, -655.817636529915, 2166.982182075735, 13.321523642167449, -685.6582982763648, -0.03200000151991844, -0.01600000075995922, 0.9920000471174717, 0.0, 0.0, 0.0, 0.0, 0.0, 1.7404842344518228E9, 0.0, 2025-02-25 11:50:34.451
98.0, -492.4139276659116, 2359.482312595006, 12.562323951162398, -477.6749819405377, -0.03200000151991844, -0.01600000075995922, 0.9920000471174717, 0.0, 0.0, 0.0, 0.0, 0.0, 1.7404842344519334E9, 0.0, 2025-02-25 11:50:34.451
99.0, -657.8427923559211, 2145.5806045792997, 11.948980358429253, -645.9536503967829, -0.03200000151991844, -0.01600000075995922, 0.9920000471174717, 0.0, 0.0, 0.0, 0.0, 0.0, 1.7404842344785104E9, 0.0, 2025-02-25 11:50:34.478
99.0, -844.2356662475504, 1963.1258453410119, 18.12355518527329, -848.4580132975243, -0.03200000151991844, -0.01600000075995922, 0.9920000471174717, 0.0, 0.0, 0.0, 0.0, 0.0, 1.7404842344786768E9, 0.0, 2025-02-25 11:50:34.478
100.0, -701.6463705869392, 2178.347738041077, 10.767171972431242, -699.2565745152533, -0.03200000151991844, -0.01600000075995922, 0.9920000471174717, 0.0, 0.0, 0.0, 0.0, 0.0, 1.7404842344790835E9, 0.0, 2025-02-25 11:50:34.479
100.0, -493.44614005368203, 2389.199557642918, 11.952720258384943, -468.27661335188895, -0.03200000151991844, -0.01600000075995922, 0.9920000471174717, 0.0, 0.0, 0.0, 0.0, 0.0, 1.7404842344791467E9, 0.0, 2025-02-25 11:50:34.479
0.0, 319.03777557006106, 210.42360105691478, 11.470273164100945, 355.3615538896993, -0.03200000151991844, -0.01600000075995922, 0.9920000471174717, 0.0, 0.0, 0.0, 0.0, 0.0, 1.740484234479552E9, 0.0, 2025-02-25 11:50:34.479
1.0, 119.04288553958759, 27.22834162740037, 8.093143504112959, 142.25831451453269, -0.03200000151991844, -0.01600000075995922, 0.9920000471174717, 0.0, 0.0, 0.0, 0.0, 0.0, 1.7404842345091476E9, 0.0, 2025-02-25 11:50:34.509
1.0, 302.587825614959, -208.8939819750376, 12.513705251738429, 304.5980218411423, -0.03200000151991844, -0.01600000075995922, 0.9920000471174717, 0.0, 0.0, 0.0, 0.0, 0.0, 1.740484234509232E9, 0.0, 2025-02-25 11:50:34.509
2.0, 499.3888410832733, -18.880884926300496, 10.262285478413105, 488.30564756458625, -0.03200000151991844, -0.01600000075995922, 0.9920000471174717, 0.0, 0.0, 0.0, 0.0, 0.0, 1.7404842345096924E9, 0.0, 2025-02-25 11:50:34.509
2.0, 331.3233469245024, 221.19077302934602, 9.742439384572208, 290.6874639559537, -0.03200000151991844, -0.01600000075995922, 0.9920000471174717, 0.0, 0.0, 0.0, 0.0, 0.0, 1.7404842345098193E9, 0.0, 2025-02-25 11:50:34.509
3.0, 204.39862222829834, 56.81095027690753, 9.966833381913602, 98.21725263632834, -0.03200000151991844, -0.01600000075995922, 0.9920000471174717, 0.0, 0.0, 0.0, 0.0, 0.0, 1.7404842345101514E9, 0.0, 2025-02-25 11:50:34.510
3.0, 365.66871816758066, 285.5376217169687, 9.929434382356703, 244.10887995781377, -0.03200000151991844, -0.01600000075995922, 0.9920000471174717, 0.0, 0.0, 0.0, 0.0, 0.0, 1.7404842345102055E9, 0.0, 2025-02-25 11:50:34.510
4.0, 519.1392527492717, 431.2852628901601, 13.818930336274207, 412.89430485805497, -0.03200000151991844, -0.01600000075995922, 0.9920000471174717, 0.0, 0.0, 0.0, 0.0, 0.0, 1.7404842345389788E9, 0.0, 2025-02-25 11:50:34.538
4.0, 378.88739456096664, 194.39812974678352, 11.616129262372851, 254.39921468589455, -0.03200000151991844, -0.01600000075995922, 0.9920000471174717, 0.0, 0.0, 0.0, 0.0, 0.0, 1.7404842345390918E9, 0.0, 2025-02-25 11:50:34.539
5.0, 213.61747561907396, 7.414351662155241, 14.52203152794391, 40.58165441919118, -0.03200000151991844, -0.01600000075995922, 0.9920000471174717, 0.0, 0.0, 0.0, 0.0, 0.0, 1.7404842345393665E9, 0.0, 2025-02-25 11:50:34.539
5.0, 350.6829390451312, 197.21988426335156, 16.406941105611622, 173.27143489709124, -0.03200000151991844, -0.01600000075995922, 0.9920000471174717, 0.0, 0.0, 0.0, 0.0, 0.0, 1.7404842345394847E9, 0.0, 2025-02-25 11:50:34.539
6.0, 533.451849879697, 395.39344301540405, 15.31863021850586, 383.88016100181267, -0.03200000151991844, -0.01600000075995922, 0.9920000471174717, 0.0, 0.0, 0.0, 0.0, 0.0, 1.7404842345396967E9, 0.0, 2025-02-25 11:50:34.539
6.0, 375.47286590142176, 632.4470017068088, 7.4237014120444655, 211.71947639156133, -0.03200000151991844, -0.01600000075995922, 0.9920000471174717, 0.0, 0.0, 0.0, 0.0, 0.0, 1.7404842345398903E9, 0.0, 2025-02-25 11:50:34.539
7.0, 201.9676872570999, 452.78968763537705, 13.946086934767663, -0.17951519787311554, -0.03200000151991844, -0.01600000075995922, 0.9920000471174717, 0.0, 0.0, 0.0, 0.0, 0.0, 1.7404842345696461E9, 0.0, 2025-02-25 11:50:34.569
7.0, 372.67355078458786, 693.8954279287718, 12.158414755947888, 173.05078079970554, -0.03200000151991844, -0.01600000075995922, 0.9920000471174717, 0.0, 0.0, 0.0, 0.0, 0.0, 1.7404842345697474E9, 0.0, 2025-02-25 11:50:34.569
8.0, 520.1378060374409, 872.8496408085339, 15.28497111890465, 371.0149051542394, -0.03200000151991844, -0.01600000075995922, 0.9920000471174717, 0.0, 0.0, 0.0, 0.0, 0.0, 1.7404842345699365E9, 0.0, 2025-02-25 11:50:34.569
8.0, 345.4826081567444, 1108.6952118142508, 12.947533646598458, 184.42942641489208, -0.03200000151991844, -0.01600000075995922, 0.9920000471174717, 0.0, 0.0, 0.0, 0.0, 0.0, 1.7404842345700743E9, 0.0, 2025-02-25 11:50:34.570
9.0, 200.50912627438083, 955.3406141311862, 12.49874565191567, 30.259530541487038, -0.03200000151991844, -0.01600000075995922, 0.9920000471174717, 0.0, 0.0, 0.0, 0.0, 0.0, 1.7404842345702853E9, 0.0, 2025-02-25 11:50:34.570
9.0, 353.41306601278484, 1185.7165814517066, 11.948980358429253, 202.90266224602237, -0.03200000151991844, -0.01600000075995922, 0.9920000471174717, 0.0, 0.0, 0.0, 0.0, 0.0, 1.7404842345703778E9, 0.0, 2025-02-25 11:50:34.570
10.0, 499.8301492780447, 1330.981775530614, 9.065517492592335, 378.1207150700502, -0.03200000151991844, -0.01600000075995922, 0.9920000471174717, 0.0, 0.0, 0.0, 0.0, 0.0, 1.740484234598831E9, 0.0, 2025-02-25 11:50:34.598
10.0, 350.16870280122384, 1112.7904022657312, 10.262285478413105, 238.57943787332624, -0.03200000151991844, -0.01600000075995922, 0.9920000471174717, 0.0, 0.0, 0.0, 0.0, 0.0, 1.7404842345989463E9, 0.0, 2025-02-25 11:50:34.598
11.0, 199.30487848864868, 961.3356737601571, 9.798537883907557, 62.942516254261136, -0.03200000151991844, -0.01600000075995922, 0.9920000471174717, 0.0, 0.0, 0.0, 0.0, 0.0, 1.7404842345990477E9, 0.0, 2025-02-25 11:50:34.599
11.0, 345.2002457100898, 1167.4172509685159, 11.780684860423207, 202.68574804859236, -0.03200000151991844, -0.01600000075995922, 0.9920000471174717, 0.0, 0.0, 0.0, 0.0, 0.0, 1.7404842345991397E9, 0.0, 2025-02-25 11:50:34.599
12.0, 508.3571211770177, 1352.1159501802176, 9.551704486832023, 399.29976851912215, -0.03200000151991844, -0.01600000075995922, 0.9920000471174717, 0.0, 0.0, 0.0, 0.0, 0.0, 1.7404842345995865E9, 0.0, 2025-02-25 11:50:34.599
12.0, 348.27631342364475, 1133.0868393252604, 7.479799911379814, 239.97442055679858, -0.03200000151991844, -0.01600000075995922, 0.9920000471174717, 0.0, 0.0, 0.0, 0.0, 0.0, 1.7404842345997176E9, 0.0, 2025-02-25 11:50:34.599
13.0, 197.8575372057967, 971.0220146453939, 14.398614829406142, 55.346779444254935, -0.03200000151991844, -0.01600000075995922, 0.9920000471174717, 0.0, 0.0, 0.0, 0.0, 0.0, 1.740484234628678E9, 0.0, 2025-02-25 11:50:34.628
13.0, 372.2210228899494, 1199.737466385588, 11.619869162328541, 232.25339709827676, -0.03200000151991844, -0.01600000075995922, 0.9920000471174717, 0.0, 0.0, 0.0, 0.0, 0.0, 1.740484234628772E9, 0.0, 2025-02-25 11:50:34.628
14.0, 520.4295182339847, 1347.7888859314844, 8.46339359972626, 419.5812459788285, -0.03200000151991844, -0.01600000075995922, 0.9920000471174717, 0.0, 0.0, 0.0, 0.0, 0.0, 1.7404842346289816E9, 0.0, 2025-02-25 11:50:34.628
14.0, 365.36017642123625, 1113.807655053679, 11.747025760821998, 261.25445130467415, -0.03200000151991844, -0.01600000075995922, 0.9920000471174717, 0.0, 0.0, 0.0, 0.0, 0.0, 1.740484234629158E9, 0.0, 2025-02-25 11:50:34.629
15.0, 226.04516317183152, 1001.9248079792596, 13.792751036584377, 104.9378528567031, -0.03200000151991844, -0.01600000075995922, 0.9920000471174717, 0.0, 0.0, 0.0, 0.0, 0.0, 1.7404842346295521E9, 0.0, 2025-02-25 11:50:34.629
15.0, 367.6284257443622, 1223.616727602668, 10.699853773228824, 237.36210043774918, -0.03200000151991844, -0.01600000075995922, 0.9920000471174717, 0.0, 0.0, 0.0, 0.0, 0.0, 1.74048423462961E9, 0.0, 2025-02-25 11:50:34.629
16.0, 486.28797153849155, 1379.622914354317, 10.322123877704144, 395.4252321650274, -0.03200000151991844, -0.01600000075995922, 0.9920000471174717, 0.0, 0.0, 0.0, 0.0, 0.0, 1.7404842346591694E9, 0.0, 2025-02-25 11:50:34.659
16.0, 342.82353928824887, 1178.1825529909693, 15.004478622227907, 259.62385492399335, -0.03200000151991844, -0.01600000075995922, 0.9920000471174717, 0.0, 0.0, 0.0, 0.0, 0.0, 1.7404842346593602E9, 0.0, 2025-02-25 11:50:34.659
17.0, 186.0357134458609, 1031.9001061241142, 10.819530571810901, 99.5673565203324, -0.03200000151991844, -0.01600000075995922, 0.9920000471174717, 0.0, 0.0, 0.0, 0.0, 0.0, 1.7404842346594403E9, 0.0, 2025-02-25 11:50:34.659
17.0, 310.5276332208887, 1246.7330492287874, 11.066363968886435, 231.41191960824654, -0.03200000151991844, -0.01600000075995922, 0.9920000471174717, 0.0, 0.0, 0.0, 0.0, 0.0, 1.7404842346595073E9, 0.0, 2025-02-25 11:50:34.659
18.0, 456.1406379956752, 1406.7484087329358, 11.358076165430248, 412.11640566727147, -0.03200000151991844, -0.01600000075995922, 0.9920000471174717, 0.0, 0.0, 0.0, 0.0, 0.0, 1.740484234659642E9, 0.0, 2025-02-25 11:50:34.659
18.0, 311.36724076094106, 1164.1280089574866, 9.555444386787713, 246.79225817602128, -0.03200000151991844, -0.01600000075995922, 0.9920000471174717, 0.0, 0.0, 0.0, 0.0, 0.0, 1.7404842346597157E9, 0.0, 2025-02-25 11:50:34.659
19.0, 172.35141950799152, 1015.0855159233324, 9.959353582002223, 65.76240082085133, -0.03200000151991844, -0.01600000075995922, 0.9920000471174717, 0.0, 0.0, 0.0, 0.0, 0.0, 1.7404842346888485E9, 0.0, 2025-02-25 11:50:34.688
19.0, 330.3042241865769, 1244.2871546577662, 11.758245460689068, 207.31948409369215, -0.03200000151991844, -0.01600000075995922, 0.9920000471174717, 0.0, 0.0, 0.0, 0.0, 0.0, 1.7404842346889627E9, 0.0, 2025-02-25 11:50:34.688
20.0, 444.41605163458735, 1366.6492014080286, 11.788164660334587, 342.19897599564865, -0.03200000151991844, -0.01600000075995922, 1.008000047877431, 0.0, 0.0, 0.0, 0.0, 0.0, 1.7404842346891136E9, 0.0, 2025-02-25 11:50:34.689
20.0, 311.30366246169433, 1163.062137470115, 11.956460158340633, 209.03422822337598, -0.03200000151991844, -0.01600000075995922, 1.008000047877431, 0.0, 0.0, 0.0, 0.0, 0.0, 1.7404842346891973E9, 0.0, 2025-02-25 11:50:34.689
21.0, 195.37798353517428, 1043.6845308844931, 15.015698322094977, 60.212389286607504, -0.03200000151991844, -0.01600000075995922, 1.008000047877431, 0.0, 0.0, 0.0, 0.0, 0.0, 1.7404842346896956E9, 0.0, 2025-02-25 11:50:34.689
21.0, 331.3027774747461, 1249.1565044000745, 12.09109655674547, 188.21233522007242, -0.03200000151991844, -0.01600000075995922, 1.008000047877431, 0.0, 0.0, 0.0, 0.0, 0.0, 1.7404842346897936E9, 0.0, 2025-02-25 11:50:34.689
22.0, 459.68606315366924, 1406.8119870321825, 9.768618684262037, 362.1588220591657, -0.03200000151991844, -0.01600000075995922, 1.008000047877431, 0.0, 0.0, 0.0, 0.0, 0.0, 1.7404842347203836E9, 0.0, 2025-02-25 11:50:34.720
22.0, 321.4948898409493, 1202.6714179008268, 12.44638705253601, 225.90865682344884, -0.03200000151991844, -0.01600000075995922, 1.008000047877431, 0.0, 0.0, 0.0, 0.0, 0.0, 1.7404842347205095E9, 0.0, 2025-02-25 11:50:34.720
23.0, 182.74460148485377, 1044.1258390792646, 16.406941105611622, 53.51796836592257, -0.03200000151991844, -0.01600000075995922, 1.008000047877431, 0.0, 0.0, 0.0, 0.0, 0.0, 1.7404842347208736E9, 0.0, 2025-02-25 11:50:34.720
23.0, 339.4669790780172, 1263.7533339271322, 14.241539031267166, 226.37053446797654, -0.03200000151991844, -0.01600000075995922, 1.008000047877431, 0.0, 0.0, 0.0, 0.0, 0.0, 1.740484234720975E9, 0.0, 2025-02-25 11:50:34.720
24.0, 456.3313728934154, 1394.937804672867, 8.515752199105918, 356.848164122086, -0.03200000151991844, -0.01600000075995922, 1.008000047877431, 0.0, 0.0, 0.0, 0.0, 0.0, 1.7404842347210476E9, 0.0, 2025-02-25 11:50:34.721
24.0, 288.65482833003625, 1631.9951032642275, 14.226579431444407, 193.92129250243306, -0.03200000151991844, -0.01600000075995922, 1.008000047877431, 0.0, 0.0, 0.0, 0.0, 0.0, 1.7404842347210948E9, 0.0, 2025-02-25 11:50:34.721
25.0, 208.53121167933568, 1507.5013135392219, 14.596829527057707, 67.43413610104471, -0.03200000151991844, -0.01600000075995922, 1.008000047877431, 0.0, 0.0, 0.0, 0.0, 0.0, 1.7404842347498877E9, 0.0, 2025-02-25 11:50:34.749
25.0, 345.9744050009176, 1728.2133793742396, 17.558830291964114, 202.57355104992166, -0.03200000151991844, -0.01600000075995922, 1.008000047877431, 0.0, 0.0, 0.0, 0.0, 0.0, 1.7404842347501154E9, 0.0, 2025-02-25 11:50:34.750
26.0, 423.62594778090715, 1832.2648759414442, 8.616729497909546, 302.9300264609046, -0.03200000151991844, -0.01600000075995922, 1.008000047877431, 0.0, 0.0, 0.0, 0.0, 0.0, 1.7404842347502816E9, 0.0, 2025-02-25 11:50:34.750
26.0, 307.9714116011746, 1625.2558035440743, 8.47461329959333, 169.3015310941264, -0.03200000151991844, -0.01600000075995922, 1.008000047877431, 0.0, 0.0, 0.0, 0.0, 0.0, 1.740484234750393E9, 0.0, 2025-02-25 11:50:34.750
27.0, 200.2996918768622, 1494.1349110975862, 14.51829162798822, 27.132974178530276, -0.03200000151991844, -0.01600000075995922, 1.008000047877431, 0.0, 0.0, 0.0, 0.0, 0.0, 1.7404842347505248E9, 0.0, 2025-02-25 11:50:34.750
27.0, 325.24039964657277, 1690.7657611179166, 15.737499013543129, 137.3758751223795, -0.03200000151991844, -0.01600000075995922, 1.008000047877431, 0.0, 0.0, 0.0, 0.0, 0.0, 1.740484234750646E9, 0.0, 2025-02-25 11:50:34.750
28.0, 447.6660246960819, 1839.0677539608441, 10.553997674956918, 295.1323350532912, -0.03200000151991844, -0.01600000075995922, 1.008000047877431, 0.0, 0.0, 0.0, 0.0, 0.0, 1.7404842347785878E9, 0.0, 2025-02-25 11:50:34.778
28.0, 309.3514346848242, 1621.8861536839977, 12.734359349124134, 159.31973811239004, -0.03200000151991844, -0.01600000075995922, 1.008000047877431, 0.0, 0.0, 0.0, 0.0, 0.0, 1.740484234778656E9, 0.0, 2025-02-25 11:50:34.778
29.0, 197.10581731470302, 1491.8535721246153, 10.135128879919648, 19.967325863428414, -0.03200000151991844, -0.01600000075995922, 1.008000047877431, 0.0, 0.0, 0.0, 0.0, 0.0, 1.7404842347789984E9, 0.0, 2025-02-25 11:50:34.778
29.0, 352.8408613195643, 1726.193833398167, 11.24587916675955, 178.12208513962105, -0.03200000151991844, -0.01600000075995922, 1.008000047877431, 0.0, 0.0, 0.0, 0.0, 0.0, 1.740484234779141E9, 0.0, 2025-02-25 11:50:34.779
30.0, 431.89112668298185, 1844.0044219023548, 9.873335883021355, 311.4981372593902, -0.03200000151991844, -0.01600000075995922, 0.9920000471174717, 0.0, 0.0, 0.0, 0.0, 0.0, 1.7404842347798269E9, 0.0, 2025-02-25 11:50:34.779
30.0, 278.68051514821127, 1621.7926561851054, 10.696113873273134, 172.28597125876695, -0.03200000151991844, -0.01600000075995922, 0.9920000471174717, 0.0, 0.0, 0.0, 0.0, 0.0, 1.7404842347799766E9, 0.0, 2025-02-25 11:50:34.779
31.0, 203.02233904460445, 1531.1561807589605, 13.366402441635728, 74.1809156211093, -0.03200000151991844, -0.01600000075995922, 0.9920000471174717, 0.0, 0.0, 0.0, 0.0, 0.0, 1.740484234808699E9, 0.0, 2025-02-25 11:50:34.808
31.0, 342.3915808433667, 1725.580489805434, 13.444940340705216, 205.3373371171765, -0.03200000151991844, -0.01600000075995922, 0.9920000471174717, 0.0, 0.0, 0.0, 0.0, 0.0, 1.740484234808811E9, 0.0, 2025-02-25 11:50:34.808
32.0, 440.0141893867403, 1834.2058840184473, 7.176868014968932, 330.93813722906634, -0.03200000151991844, -0.01600000075995922, 0.9920000471174717, 0.0, 0.0, 0.0, 0.0, 0.0, 1.7404842348090878E9, 0.0, 2025-02-25 11:50:34.809
32.0, 312.51539004733786, 1634.4821367347613, 8.504532499238849, 202.51558260060847, -0.03200000151991844, -0.01600000075995922, 0.9920000471174717, 0.0, 0.0, 0.0, 0.0, 0.0, 1.7404842348091552E9, 0.0, 2025-02-25 11:50:34.809
33.0, 220.91776033258066, 1510.2688395064324, 12.558584051206708, 75.49736040551215, -0.03200000151991844, -0.01600000075995922, 0.9920000471174717, 0.0, 0.0, 0.0, 0.0, 0.0, 1.7404842348098035E9, 0.0, 2025-02-25 11:50:34.809
33.0, 362.9834699993953, 1722.7344259391539, 15.741238913498819, 216.2690646876581, -0.03200000151991844, -0.01600000075995922, 0.9920000471174717, 0.0, 0.0, 0.0, 0.0, 0.0, 1.7404842348099196E9, 0.0, 2025-02-25 11:50:34.809
34.0, 464.52923359628767, 1845.6649374826811, 10.88310887105763, 349.1551899132319, -0.03200000151991844, -0.01600000075995922, 0.9920000471174717, 0.0, 0.0, 0.0, 0.0, 0.0, 1.7404842348388927E9, 0.0, 2025-02-25 11:50:34.838
34.0, 302.78043046267703, 1623.5391894644126, 10.408141576685011, 195.3200150858611, -0.03200000151991844, -0.01600000075995922, 0.9920000471174717, 0.0, 0.0, 0.0, 0.0, 0.0, 1.7404842348390832E9, 0.0, 2025-02-25 11:50:34.839
35.0, 222.28656371636316, 1521.8587894691154, 16.190026908181608, 90.71501332521439, -0.03200000151991844, -0.01600000075995922, 0.9920000471174717, 0.0, 0.0, 0.0, 0.0, 0.0, 1.7404842348394408E9, 0.0, 2025-02-25 11:50:34.839
35.0, 374.34154616482556, 1750.170332014095, 13.153228144161403, 244.85312004899606, -0.03200000151991844, -0.01600000075995922, 0.9920000471174717, 0.0, 0.0, 0.0, 0.0, 0.0, 1.7404842348395665E9, 0.0, 2025-02-25 11:50:34.839
36.0, 444.2552359364927, 1833.7421364239417, 13.908687935210764, 329.37485904758796, -0.03200000151991844, -0.01600000075995922, 0.9920000471174717, 0.0, 0.0, 0.0, 0.0, 0.0, 1.7404842348396876E9, 0.0, 2025-02-25 11:50:34.839
36.0, 296.2056863405742, 1627.6455996157601, 9.432027688249946, 189.07438215985894, -0.03200000151991844, -0.01600000075995922, 0.9920000471174717, 0.0, 0.0, 0.0, 0.0, 0.0, 1.7404842348397975E9, 0.0, 2025-02-25 11:50:34.839
37.0, 231.67371260514483, 1533.0036913370714, 10.84944977145642, 85.95412068162113, -0.03200000151991844, -0.01600000075995922, 0.9920000471174717, 0.0, 0.0, 0.0, 0.0, 0.0, 1.7404842348690605E9, 0.0, 2025-02-25 11:50:34.869
37.0, 354.3480410017073, 1725.857242402155, 14.742685625329614, 201.72085386002436, -0.03200000151991844, -0.01600000075995922, 0.9920000471174717, 0.0, 0.0, 0.0, 0.0, 0.0, 1.740484234869202E9, 0.0, 2025-02-25 11:50:34.869
38.0, 422.2421847973019, 1822.6869921549223, 8.549411298707128, 290.7865713047795, -0.03200000151991844, -0.01600000075995922, 0.9920000471174717, 0.0, 0.0, 0.0, 0.0, 0.0, 1.7404842348694181E9, 0.0, 2025-02-25 11:50:34.869
38.0, 260.8374524596147, 1609.0807362357154, 10.262285478413105, 137.0972525756806, -0.03200000151991844, -0.01600000075995922, 0.9920000471174717, 0.0, 0.0, 0.0, 0.0, 0.0, 1.7404842348696396E9, 0.0, 2025-02-25 11:50:34.869
39.0, 177.94256994174793, 1500.2047687256709, 10.999045769684017, 23.39307422284037, -0.03200000151991844, -0.01600000075995922, 0.9920000471174717, 0.0, 0.0, 0.0, 0.0, 0.0, 1.7404842348698015E9, 0.0, 2025-02-25 11:50:34.869
39.0, 354.1685258038342, 1718.2428060923703, 15.595382815226912, 174.00819518836215, -0.03200000151991844, -0.01600000075995922, 0.9920000471174717, 0.0, 0.0, 0.0, 0.0, 0.0, 1.740484234869907E9, 0.0, 2025-02-25 11:50:34.869
40.0, 422.3768211957067, 1825.4507782221772, 13.512258539907634, 287.8956286390312, -0.03200000151991844, -0.01600000075995922, 0.9920000471174717, 0.0, 0.0, 0.0, 0.0, 0.0, 1.740484234899304E9, 0.0, 2025-02-25 11:50:34.899
40.0, 234.06724857678637, 1590.560751655139, 15.27375141903758, 137.9499497655779, -0.03200000151991844, -0.01600000075995922, 0.9920000471174717, 0.0, 0.0, 0.0, 0.0, 0.0, 1.74048423489943E9, 0.0, 2025-02-25 11:50:34.899
41.0, 206.60890310211107, 1531.8331026509404, 11.825563659891486, 86.14111567940563, -0.03200000151991844, -0.01600000075995922, 0.9920000471174717, 0.0, 0.0, 0.0, 0.0, 0.0, 1.7404842348997426E9, 0.0, 2025-02-25 11:50:34.899
41.0, 339.7998301740736, 1770.7061226707883, 8.493312799371779, 261.0693262568675, -0.03200000151991844, -0.01600000075995922, 0.9920000471174717, 0.0, 0.0, 0.0, 0.0, 0.0, 1.7404842348998692E9, 0.0, 2025-02-25 11:50:34.899
42.0, 369.1281256265938, 1847.138458065223, 12.958753346465528, 343.56777937943116, -0.03200000151991844, -0.01600000075995922, 0.9920000471174717, 0.0, 0.0, 0.0, 0.0, 0.0, 1.740484234900195E9, 0.0, 2025-02-25 11:50:34.900
42.0, 253.92985724145547, 1666.1777888592333, 7.539638310670853, 248.02268526144326, -0.03200000151991844, -0.01600000075995922, 0.9920000471174717, 0.0, 0.0, 0.0, 0.0, 0.0, 1.7404842349004648E9, 0.0, 2025-02-25 11:50:34.900
43.0, 207.61867609014735, 1587.4229755923152, 13.115829144604504, 171.84092316403985, -0.03200000151991844, -0.01600000075995922, 0.9920000471174717, 0.0, 0.0, 0.0, 0.0, 0.0, 1.7404842349288604E9, 0.0, 2025-02-25 11:50:34.928
43.0, 350.92603254225105, 1774.7190353232436, 8.149242003448308, 288.6323889303021, -0.03200000151991844, -0.01600000075995922, 0.9920000471174717, 0.0, 0.0, 0.0, 0.0, 0.0, 1.7404842349289873E9, 0.0, 2025-02-25 11:50:34.928
44.0, 438.6603456027806, 1889.9378731581382, 9.001939193345606, 393.2486103908159, -0.03200000151991844, -0.01600000075995922, 0.9920000471174717, 0.0, 0.0, 0.0, 0.0, 0.0, 1.7404842349292424E9, 0.0, 2025-02-25 11:50:34.929
44.0, 305.2338048336096, 1667.1726022474468, 8.556891098618507, 224.52863373979926, -0.03200000151991844, -0.01600000075995922, 0.9920000471174717, 0.0, 0.0, 0.0, 0.0, 0.0, 1.7404842349293404E9, 0.0, 2025-02-25 11:50:34.929
45.0, 235.63052675826475, 1565.282767854631, 11.735806060954928, 122.63131954707205, -0.03200000151991844, -0.01600000075995922, 0.9920000471174717, 0.0, 0.0, 0.0, 0.0, 0.0, 1.7404842349298644E9, 0.0, 2025-02-25 11:50:34.929
45.0, 417.0773829584941, 1800.356049519498, 14.92594072315842, 289.2382527231239, -0.03200000151991844, -0.01600000075995922, 0.9920000471174717, 0.0, 0.0, 0.0, 0.0, 0.0, 1.7404842349299805E9, 0.0, 2025-02-25 11:50:34.929
46.0, 456.3650319930166, 1866.1708089397289, 13.770311636850238, 340.2504881187342, -0.03200000151991844, -0.01600000075995922, 0.9920000471174717, 0.0, 0.0, 0.0, 0.0, 0.0, 1.7404842349596553E9, 0.0, 2025-02-25 11:50:34.959
46.0, 299.88948779692873, 1642.8034141361713, 9.185194291174412, 193.0498958127573, -0.03200000151991844, -0.01600000075995922, 0.9920000471174717, 0.0, 0.0, 0.0, 0.0, 0.0, 1.7404842349598513E9, 0.0, 2025-02-25 11:50:34.959
47.0, 285.5619310666807, 1567.6052457271144, 11.331896865740418, 126.48715640138835, -0.03200000151991844, -0.01600000075995922, 0.9920000471174717, 0.0, 0.0, 0.0, 0.0, 0.0, 1.7404842349599721E9, 0.0, 2025-02-25 11:50:34.959
47.0, 413.55065730027854, 1767.0335409143008, 9.783578284084797, 266.0695724976249, -0.03200000151991844, -0.01600000075995922, 0.9920000471174717, 0.0, 0.0, 0.0, 0.0, 0.0, 1.7404842349600494E9, 0.0, 2025-02-25 11:50:34.960
48.0, 447.8829388935119, 1818.1579733085819, 7.995906105265021, 337.5054015512578, -0.03200000151991844, -0.01600000075995922, 0.9920000471174717, 0.0, 0.0, 0.0, 0.0, 0.0, 1.740484234960156E9, 0.0, 2025-02-25 11:50:34.960
48.0, 311.59911455819383, 1619.4664384126663, 9.488126187585294, 224.9624621346593, -0.03200000151991844, -0.01600000075995922, 0.9920000471174717, 0.0, 0.0, 0.0, 0.0, 0.0, 1.7404842349602325E9, 0.0, 2025-02-25 11:50:34.960
49.0, 286.040638261009, 1548.916965648532, 13.183147343806922, 163.39622906409204, -0.03200000151991844, -0.01600000075995922, 0.9920000471174717, 0.0, 0.0, 0.0, 0.0, 0.0, 1.740484234988454E9, 0.0, 2025-02-25 11:50:34.988
49.0, 399.14082277100533, 1742.5446760044433, 12.255652154795825, 282.68220810079947, -0.03200000151991844, -0.01600000075995922, 0.9920000471174717, 0.0, 0.0, 0.0, 0.0, 0.0, 1.7404842349885385E9, 0.0, 2025-02-25 11:50:34.988
50.0, 448.7393759833649, 1821.1910321726464, 12.47630625218153, 362.3084180573933, -0.03200000151991844, -0.01600000075995922, 0.9920000471174717, 0.0, 0.0, 0.0, 0.0, 0.0, 1.7404842349890192E9, 0.0, 2025-02-25 11:50:34.989
50.0, 289.7468791170977, 1606.5114249661565, 13.789011136628687, 218.12592501565814, -0.03200000151991844, -0.01600000075995922, 0.9920000471174717, 0.0, 0.0, 0.0, 0.0, 0.0, 1.7404842349891243E9, 0.0, 2025-02-25 11:50:34.989
51.0, 266.56697919173166, 1557.8328871428967, 12.85029624775052, 176.28766421135515, -0.03200000151991844, -0.01600000075995922, 0.9920000471174717, 0.0, 0.0, 0.0, 0.0, 0.0, 1.7404842349899333E9, 0.0, 2025-02-25 11:50:34.989
51.0, 413.40106130205095, 1772.254441252444, 10.621315874159336, 314.9089260189794, -0.03200000151991844, -0.01600000075995922, 0.9920000471174717, 0.0, 0.0, 0.0, 0.0, 0.0, 1.7404842349900572E9, 0.0, 2025-02-25 11:50:34.990
52.0, 430.6868788972497, 1837.9644834739156, 12.599722950719297, 364.54487823089585, -0.03200000151991844, -0.01600000075995922, 0.9920000471174717, 0.0, 0.0, 0.0, 0.0, 0.0, 1.740484235018873E9, 0.0, 2025-02-25 11:50:35.018
52.0, 284.484839879442, 1632.8851994536817, 10.84570987150073, 230.5872716680169, -0.03200000151991844, -0.01600000075995922, 0.9920000471174717, 0.0, 0.0, 0.0, 0.0, 0.0, 1.7404842350190384E9, 0.0, 2025-02-25 11:50:35.019
53.0, 274.6302034961991, 1575.2608209364116, 11.156121567822993, 177.54427059646696, -0.03200000151991844, -0.01600000075995922, 0.9920000471174717, 0.0, 0.0, 0.0, 0.0, 0.0, 1.740484235019124E9, 0.0, 2025-02-25 11:50:35.019
53.0, 400.43108825571835, 1747.2083312491886, 11.541331263259053, 290.76039200508967, -0.03200000151991844, -0.01600000075995922, 0.9920000471174717, 0.0, 0.0, 0.0, 0.0, 0.0, 1.7404842350192E9, 0.0, 2025-02-25 11:50:35.019
54.0, 414.24627869203687, 1807.0916093396954, 13.886248535476625, 339.2556747305207, -0.03200000151991844, -0.01600000075995922, 0.9920000471174717, 0.0, 0.0, 0.0, 0.0, 0.0, 1.74048423501988E9, 0.0, 2025-02-25 11:50:35.019
54.0, 280.99177332082763, 1622.0694087818265, 12.244432454928756, 204.28829517960548, -0.03200000151991844, -0.01600000075995922, 0.9920000471174717, 0.0, 0.0, 0.0, 0.0, 0.0, 1.7404842350200493E9, 0.0, 2025-02-25 11:50:35.020
55.0, 249.1727044978179, 1556.344406960532, 12.622162350453436, 146.90327025949955, -0.03200000151991844, -0.01600000075995922, 0.9920000471174717, 0.0, 0.0, 0.0, 0.0, 0.0, 1.740484235048916E9, 0.0, 2025-02-25 11:50:35.048
55.0, 371.8844318939373, 1727.3457225845195, 13.037291245535016, 256.8731585065834, -0.03200000151991844, -0.01600000075995922, 0.9920000471174717, 0.0, 0.0, 0.0, 0.0, 0.0, 1.7404842350490985E9, 0.0, 2025-02-25 11:50:35.049
56.0, 374.3565057646483, 1774.6816363236867, 10.617575974203646, 284.80273137567565, -0.03200000151991844, -0.01600000075995922, 0.9920000471174717, 0.0, 0.0, 0.0, 0.0, 0.0, 1.7404842350492146E9, 0.0, 2025-02-25 11:50:35.049
56.0, 244.9540973477997, 1586.2748263059184, 11.111242768354714, 160.6698419963941, -0.03200000151991844, -0.01600000075995922, 0.9920000471174717, 0.0, 0.0, 0.0, 0.0, 0.0, 1.7404842350493207E9, 0.0, 2025-02-25 11:50:35.049
57.0, 250.31711388425902, 1543.1575197167695, 9.589103486388922, 120.09940727706999, -0.03200000151991844, -0.01600000075995922, 0.9920000471174717, 0.0, 0.0, 0.0, 0.0, 0.0, 1.7404842350497484E9, 0.0, 2025-02-25 11:50:35.049
57.0, 359.97285053506494, 1723.033617935609, 14.432273929007351, 225.30092308064923, -0.03200000151991844, -0.01600000075995922, 0.9920000471174717, 0.0, 0.0, 0.0, 0.0, 0.0, 1.7404842350498717E9, 0.0, 2025-02-25 11:50:35.049
58.0, 373.53372777439654, 1777.7707936870866, 10.142608679831028, 267.02324698632583, -0.03200000151991844, -0.01600000075995922, 0.9920000471174717, 0.0, 0.0, 0.0, 0.0, 0.0, 1.7404842350787573E9, 0.0, 2025-02-25 11:50:35.078
58.0, 237.97170413052663, 1601.1184892300516, 10.0790303805843, 149.91014982387424, -0.03200000151991844, -0.01600000075995922, 0.9920000471174717, 0.0, 0.0, 0.0, 0.0, 0.0, 1.7404842350789227E9, 0.0, 2025-02-25 11:50:35.078
59.0, 237.70243133371696, 1558.5472080344334, 9.087956892326474, 108.41595981549472, -0.03200000151991844, -0.01600000075995922, 0.9920000471174717, 0.0, 0.0, 0.0, 0.0, 0.0, 1.7404842350790265E9, 0.0, 2025-02-25 11:50:35.079
59.0, 367.3554130475968, 1752.788261983078, 14.443493628874421, 234.5048168716021, -0.03200000151991844, -0.01600000075995922, 0.9920000471174717, 0.0, 0.0, 0.0, 0.0, 0.0, 1.7404842350791943E9, 0.0, 2025-02-25 11:50:35.079
60.0, 363.2003841968253, 1806.0855762516148, 11.096283168531954, 262.34463214175776, -0.03200000151991844, -0.01600000075995922, 0.9920000471174717, 0.0, 0.0, 0.0, 0.0, 0.0, 1.7404842350799825E9, 0.0, 2025-02-25 11:50:35.079
60.0, 265.67688300227746, 1669.1210901243612, 10.43058097641915, 159.633889708668, -0.03200000151991844, -0.01600000075995922, 0.9920000471174717, 0.0, 0.0, 0.0, 0.0, 0.0, 1.740484235080079E9, 0.0, 2025-02-25 11:50:35.080
61.0, 244.86433974886313, 1612.0801360001788, 16.627595202997327, 117.07382821291685, -0.03200000151991844, -0.01600000075995922, 0.9920000471174717, 0.0, 0.0, 0.0, 0.0, 0.0, 1.7404842351087735E9, 0.0, 2025-02-25 11:50:35.108
61.0, 390.20246187690645, 1807.7460918319412, 10.367002677172422, 234.8376679676585, -0.03200000151991844, -0.01600000075995922, 0.9920000471174717, 0.0, 0.0, 0.0, 0.0, 0.0, 1.7404842351088965E9, 0.0, 2025-02-25 11:50:35.108
62.0, 400.46848725527525, 1861.899843190331, 8.381115800701082, 264.3604382178746, -0.03200000151991844, -0.01600000075995922, 0.9920000471174717, 0.0, 0.0, 0.0, 0.0, 0.0, 1.7404842351091027E9, 0.0, 2025-02-25 11:50:35.109
62.0, 277.8091184585355, 1656.4615287743509, 9.716260084882379, 110.49160429090261, -0.03200000151991844, -0.01600000075995922, 0.9920000471174717, 0.0, 0.0, 0.0, 0.0, 0.0, 1.7404842351092029E9, 0.0, 2025-02-25 11:50:35.109
63.0, 254.64417813299224, 1584.0982045317069, 10.46424007602036, 59.93937658984214, -0.03200000151991844, -0.01600000075995922, 0.9920000471174717, 0.0, 0.0, 0.0, 0.0, 0.0, 1.740484235109651E9, 0.0, 2025-02-25 11:50:35.109
63.0, 442.45634405780584, 1794.5966035877354, 8.497052699327469, 224.27993039274588, -0.03200000151991844, -0.01600000075995922, 0.9920000471174717, 0.0, 0.0, 0.0, 0.0, 0.0, 1.7404842351097648E9, 0.0, 2025-02-25 11:50:35.109
64.0, 429.5424695108086, 1817.4249529172666, 15.367248917929828, 250.31711388425902, -0.03200000151991844, -0.01600000075995922, 0.9920000471174717, 0.0, 0.0, 0.0, 0.0, 0.0, 1.7404842351387408E9, 0.0, 2025-02-25 11:50:35.138
64.0, 256.0354209165089, 1574.7671541422606, 10.254805678501725, 109.27987670525908, -0.03200000151991844, -0.01600000075995922, 0.9920000471174717, 0.0, 0.0, 0.0, 0.0, 0.0, 1.7404842351388526E9, 0.0, 2025-02-25 11:50:35.138
65.0, 288.10132313659415, 1549.1787586454302, 8.123062703758478, 126.2066639047116, -0.03200000151991844, -0.01600000075995922, 0.9920000471174717, 0.0, 0.0, 0.0, 0.0, 0.0, 1.740484235139024E9, 0.0, 2025-02-25 11:50:35.139
65.0, 419.5344972293824, 1723.3739488315769, 11.507672163657844, 267.83480527671054, -0.03200000151991844, -0.01600000075995922, 0.9920000471174717, 0.0, 0.0, 0.0, 0.0, 0.0, 1.7404842351391172E9, 0.0, 2025-02-25 11:50:35.139
66.0, 391.6946819592267, 1749.747723319102, 10.161308179609478, 287.8283104398288, -0.03200000151991844, -0.01600000075995922, 0.9920000471174717, 0.0, 0.0, 0.0, 0.0, 0.0, 1.7404842351397688E9, 0.0, 2025-02-25 11:50:35.139
66.0, 256.1363982153125, 1580.6163576729596, 11.227179666981101, 182.52581733744591, -0.03200000151991844, -0.01600000075995922, 0.9920000471174717, 0.0, 0.0, 0.0, 0.0, 0.0, 1.7404842351398628E9, 0.0, 2025-02-25 11:50:35.139
67.0, 292.06187718966976, 1558.577127234079, 11.855482859537005, 193.82405510358512, -0.03200000151991844, -0.01600000075995922, 0.9920000471174717, 0.0, 0.0, 0.0, 0.0, 0.0, 1.7404842351685321E9, 0.0, 2025-02-25 11:50:35.168
67.0, 415.66744067519903, 1752.5040295864455, 11.29823776613921, 326.42033808259293, -0.03200000151991844, -0.01600000075995922, 0.9920000471174717, 0.0, 0.0, 0.0, 0.0, 0.0, 1.7404842351686432E9, 0.0, 2025-02-25 11:50:35.168
68.0, 396.10028410702944, 1774.460982226301, 8.811204295605421, 317.82230808446184, -0.03200000151991844, -0.01600000075995922, 0.9920000471174717, 0.0, 0.0, 0.0, 0.0, 0.0, 1.740484235168955E9, 0.0, 2025-02-25 11:50:35.168
68.0, 248.9857095000334, 1610.3747416203842, 11.68344746157527, 211.6596379922703, -0.03200000151991844, -0.01600000075995922, 0.9920000471174717, 0.0, 0.0, 0.0, 0.0, 0.0, 1.7404842351690469E9, 0.0, 2025-02-25 11:50:35.169
69.0, 268.2611538716592, 1607.1883468581364, 13.875028835609555, 209.83456681389362, -0.03200000151991844, -0.01600000075995922, 0.9920000471174717, 0.0, 0.0, 0.0, 0.0, 0.0, 1.7404842351697564E9, 0.0, 2025-02-25 11:50:35.169
69.0, 402.6712883291766, 1808.4043142241426, 14.136821832507849, 341.50335460389033, -0.03200000151991844, -0.01600000075995922, 0.9920000471174717, 0.0, 0.0, 0.0, 0.0, 0.0, 1.74048423516999E9, 0.0, 2025-02-25 11:50:35.169
70.0, 367.96875664032996, 1814.1787197557278, 10.568957274779677, 329.63291214453056, -0.03200000151991844, -0.01600000075995922, 0.9920000471174717, 0.0, 0.0, 0.0, 0.0, 0.0, 1.7404842351986413E9, 0.0, 2025-02-25 11:50:35.198
70.0, 214.51505160843953, 1625.416619242169, 11.877922259271145, 193.22941101063043, -0.03200000151991844, -0.01600000075995922, 0.9920000471174717, 0.0, 0.0, 0.0, 0.0, 0.0, 1.7404842351987903E9, 0.0, 2025-02-25 11:50:35.198
71.0, 258.0774062923156, 1610.1877466225997, 12.364109253510833, 199.2095110397786, -0.03200000151991844, -0.01600000075995922, 0.9920000471174717, 0.0, 0.0, 0.0, 0.0, 0.0, 1.740484235198892E9, 0.0, 2025-02-25 11:50:35.198
71.0, 402.06916443631053, 1801.234926009085, 13.833889936096966, 313.2072715391405, -0.03200000151991844, -0.01600000075995922, 0.9920000471174717, 0.0, 0.0, 0.0, 0.0, 0.0, 1.740484235199062E9, 0.0, 2025-02-25 11:50:35.199
72.0, 373.6646242728457, 1829.0036831800826, 11.713366661220789, 297.9484797199257, -0.03200000151991844, -0.01600000075995922, 0.9920000471174717, 0.0, 0.0, 0.0, 0.0, 0.0, 1.7404842351996508E9, 0.0, 2025-02-25 11:50:35.199
72.0, 239.29936861479655, 1653.7014826070517, 10.127649080008268, 163.6655018609017, -0.03200000151991844, -0.01600000075995922, 0.9920000471174717, 0.0, 0.0, 0.0, 0.0, 0.0, 1.7404842351997335E9, 0.0, 2025-02-25 11:50:35.199
73.0, 279.57061133766547, 1653.4546492099762, 9.581623686477542, 167.31190431769937, -0.03200000151991844, -0.01600000075995922, 0.9920000471174717, 0.0, 0.0, 0.0, 0.0, 0.0, 1.740484235228614E9, 0.0, 2025-02-25 11:50:35.228
73.0, 422.00283120013773, 1845.6350182830356, 11.126202368177474, 287.7497725407593, -0.03200000151991844, -0.01600000075995922, 0.9920000471174717, 0.0, 0.0, 0.0, 0.0, 0.0, 1.7404842352287316E9, 0.0, 2025-02-25 11:50:35.228
74.0, 383.0742125613615, 1858.2833599331789, 12.566063851118088, 251.88787186564878, -0.03200000151991844, -0.01600000075995922, 0.9920000471174717, 0.0, 0.0, 0.0, 0.0, 0.0, 1.740484235228901E9, 0.0, 2025-02-25 11:50:35.228
74.0, 241.22541709197685, 1669.1884083235636, 9.66764138545841, 122.31342805083841, -0.03200000151991844, -0.01600000075995922, 0.9920000471174717, 0.0, 0.0, 0.0, 0.0, 0.0, 1.740484235229E9, 0.0, 2025-02-25 11:50:35.229
75.0, 297.77270442200825, 1671.4660073965788, 10.46050017606467, 137.2842475734651, -0.03200000151991844, -0.01600000075995922, 0.9920000471174717, 0.0, 0.0, 0.0, 0.0, 0.0, 1.7404842352296183E9, 0.0, 2025-02-25 11:50:35.229
75.0, 444.5469481330365, 1854.3340255799703, 12.386548653244972, 255.99802191695198, -0.03200000151991844, -0.01600000075995922, 0.9920000471174717, 0.0, 0.0, 0.0, 0.0, 0.0, 1.7404842352297397E9, 0.0, 2025-02-25 11:50:35.229
76.0, 380.31790629401803, 1842.0671537253074, 14.813743724487722, 210.3749823574908, -0.03200000151991844, -0.01600000075995922, 0.9920000471174717, 0.0, 0.0, 0.0, 0.0, 0.0, 1.7404842352591481E9, 0.0, 2025-02-25 11:50:35.259
76.0, 252.9874024526216, 1664.3788969805464, 13.744132337160408, 101.55698329675943, -0.03200000151991844, -0.01600000075995922, 0.9920000471174717, 0.0, 0.0, 0.0, 0.0, 0.0, 1.7404842352592597E9, 0.0, 2025-02-25 11:50:35.259
77.0, 318.18881828011945, 1652.8600051170215, 11.27205846644938, 118.65954579412937, -0.03200000151991844, -0.01600000075995922, 0.9920000471174717, 0.0, 0.0, 0.0, 0.0, 0.0, 1.7404842352597733E9, 0.0, 2025-02-25 11:50:35.259
77.0, 450.15679806657135, 1832.5827674376778, 10.632535574026406, 239.23205041559413, -0.03200000151991844, -0.01600000075995922, 0.9920000471174717, 0.0, 0.0, 0.0, 0.0, 0.0, 1.740484235259865E9, 0.0, 2025-02-25 11:50:35.259
78.0, 382.6740432661027, 1818.808715900872, 8.010865705087781, 192.22898777248338, -0.03200000151991844, -0.01600000075995922, 0.9920000471174717, 0.0, 0.0, 0.0, 0.0, 0.0, 1.740484235259967E9, 0.0, 2025-02-25 11:50:35.259
78.0, 239.65839901054278, 1612.1437142994255, 13.407541341148317, 65.64272402226925, -0.03200000151991844, -0.01600000075995922, 0.9920000471174717, 0.0, 0.0, 0.0, 0.0, 0.0, 1.7404842352601087E9, 0.0, 2025-02-25 11:50:35.260
79.0, 319.5875408635475, 1632.4027523593977, 13.572096939198673, 119.37386668566614, -0.03200000151991844, -0.01600000075995922, 0.9920000471174717, 0.0, 0.0, 0.0, 0.0, 0.0, 1.7404842352886713E9, 0.0, 2025-02-25 11:50:35.288
79.0, 451.4657630510628, 1805.6928867562674, 16.44808000512421, 223.95081919664517, -0.03200000151991844, -0.01600000075995922, 0.9920000471174717, 0.0, 0.0, 0.0, 0.0, 0.0, 1.7404842352887769E9, 0.0, 2025-02-25 11:50:35.288
80.0, 374.1096723675728, 1782.999173825141, 9.480646387673914, 181.48051529983059, -0.03200000151991844, -0.01600000075995922, 0.9920000471174717, 0.0, 0.0, 0.0, 0.0, 0.0, 1.7404842352892046E9, 0.0, 2025-02-25 11:50:35.289
80.0, 243.34220046689734, 1586.2449071062729, 11.29449786618352, 60.967849077656865, -0.03200000151991844, -0.01600000075995922, 0.9920000471174717, 0.0, 0.0, 0.0, 0.0, 0.0, 1.7404842352893503E9, 0.0, 2025-02-25 11:50:35.289
81.0, 299.8595685972832, 1598.5865769600496, 9.839676783420146, 110.18493249453604, -0.03200000151991844, -0.01600000075995922, 0.9920000471174717, 0.0, 0.0, 0.0, 0.0, 0.0, 1.740484235289734E9, 0.0, 2025-02-25 11:50:35.289
81.0, 460.7444548411295, 1797.8540564491414, 14.540731027722359, 240.58963409950957, -0.03200000151991844, -0.01600000075995922, 0.9920000471174717, 0.0, 0.0, 0.0, 0.0, 0.0, 1.7404842352898653E9, 0.0, 2025-02-25 11:50:35.289
82.0, 369.2066635256633, 1768.4247836978175, 11.126202368177474, 185.23537485534325, -0.03200000151991844, -0.01600000075995922, 0.9920000471174717, 0.0, 0.0, 0.0, 0.0, 0.0, 1.7404842353189511E9, 0.0, 2025-02-25 11:50:35.318
82.0, 223.6778064998798, 1593.8069848166779, 12.008818757720292, 72.42316264193505, -0.03200000151991844, -0.01600000075995922, 0.9920000471174717, 0.0, 0.0, 0.0, 0.0, 0.0, 1.7404842353191264E9, 0.0, 2025-02-25 11:50:35.319
83.0, 305.14778713462874, 1621.242890891619, 10.972866469994187, 129.55387436505407, -0.03200000151991844, -0.01600000075995922, 0.9920000471174717, 0.0, 0.0, 0.0, 0.0, 0.0, 1.7404842353194258E9, 0.0, 2025-02-25 11:50:35.319
83.0, 445.78111511841416, 1816.7255916255526, 14.0807233331725, 252.11974566290155, -0.03200000151991844, -0.01600000075995922, 0.9920000471174717, 0.0, 0.0, 0.0, 0.0, 0.0, 1.740484235319517E9, 0.0, 2025-02-25 11:50:35.319
84.0, 354.78560929652303, 1801.3246836080216, 12.730619449168444, 205.10920321987942, -0.03200000151991844, -0.01600000075995922, 0.9920000471174717, 0.0, 0.0, 0.0, 0.0, 0.0, 1.7404842353196263E9, 0.0, 2025-02-25 11:50:35.319
84.0, 202.13224285515025, 1615.5732025587931, 12.588503250852227, 80.10491715092212, -0.03200000151991844, -0.01600000075995922, 0.9920000471174717, 0.0, 0.0, 0.0, 0.0, 0.0, 1.7404842353196838E9, 0.0, 2025-02-25 11:50:35.319
85.0, 294.2010999643244, 1661.6637296127155, 10.711073473095894, 149.38282393012196, -0.03200000151991844, -0.01600000075995922, 0.9920000471174717, 0.0, 0.0, 0.0, 0.0, 0.0, 1.7404842353488164E9, 0.0, 2025-02-25 11:50:35.348
85.0, 443.38383924681693, 1862.6702625812031, 13.119569044560194, 275.16500918986276, -0.03200000151991844, -0.01600000075995922, 0.9920000471174717, 0.0, 0.0, 0.0, 0.0, 0.0, 1.7404842353489356E9, 0.0, 2025-02-25 11:50:35.348
86.0, 334.0927428416908, 1816.2655839310028, 11.934020758606493, 205.32237751735374, -0.03200000151991844, -0.01600000075995922, 0.9920000471174717, 0.0, 0.0, 0.0, 0.0, 0.0, 1.740484235349198E9, 0.0, 2025-02-25 11:50:35.349
86.0, 211.21271994756535, 1629.7062844913453, 16.212466307915747, 97.42813374567777, -0.03200000151991844, -0.01600000075995922, 0.9920000471174717, 0.0, 0.0, 0.0, 0.0, 0.0, 1.7404842353492804E9, 0.0, 2025-02-25 11:50:35.349
87.0, 289.7057402175851, 1650.4028908461332, 11.485232763923705, 162.93622136954218, -0.03200000151991844, -0.01600000075995922, 0.9920000471174717, 0.0, 0.0, 0.0, 0.0, 0.0, 1.7404842353498442E9, 0.0, 2025-02-25 11:50:35.349
87.0, 440.3993990821764, 1833.7683157236315, 12.020038457587361, 295.02387795457616, -0.03200000151991844, -0.01600000075995922, 0.9920000471174717, 0.0, 0.0, 0.0, 0.0, 0.0, 1.740484235349944E9, 0.0, 2025-02-25 11:50:35.349
88.0, 349.0261633647606, 1787.2065612752922, 15.816036912612617, 236.82729474408552, -0.03200000151991844, -0.01600000075995922, 0.9920000471174717, 0.0, 0.0, 0.0, 0.0, 0.0, 1.7404842353787677E9, 0.0, 2025-02-25 11:50:35.378
88.0, 186.49572114041075, 1589.3976427689195, 9.981792981736362, 111.96138497348875, -0.03200000151991844, -0.01600000075995922, 0.9920000471174717, 0.0, 0.0, 0.0, 0.0, 0.0, 1.7404842353788524E9, 0.0, 2025-02-25 11:50:35.378
89.0, 302.73181176325306, 1635.656465320848, 11.376775665208697, 197.54525555949658, -0.03200000151991844, -0.01600000075995922, 0.9920000471174717, 0.0, 0.0, 0.0, 0.0, 0.0, 1.7404842353791513E9, 0.0, 2025-02-25 11:50:35.379
89.0, 440.88932597637177, 1804.0024519762956, 14.200400131754577, 325.9154515885748, -0.03200000151991844, -0.01600000075995922, 0.9920000471174717, 0.0, 0.0, 0.0, 0.0, 0.0, 1.7404842353792558E9, 0.0, 2025-02-25 11:50:35.379
90.0, 334.36575553845614, 1755.5296086505987, 11.309457466006279, 243.88822586042807, -0.03200000151991844, -0.01600000075995922, 0.9920000471174717, 0.0, 0.0, 0.0, 0.0, 0.0, 1.7404842353795643E9, 0.0, 2025-02-25 11:50:35.379
90.0, 184.04608666943386, 1576.162136825733, 6.683201220817864, 133.41345111932606, -0.03200000151991844, -0.01600000075995922, 0.9920000471174717, 0.0, 0.0, 0.0, 0.0, 0.0, 1.7404842353796163E9, 0.0, 2025-02-25 11:50:35.379
91.0, 286.6390222539194, 1637.0140490047634, 10.385702176950872, 205.77677536197007, -0.03200000151991844, -0.01600000075995922, 0.9920000471174717, 0.0, 0.0, 0.0, 0.0, 0.0, 1.7404842354108956E9, 0.0, 2025-02-25 11:50:35.410
91.0, 439.4681639932096, 1847.1272383653559, 15.494405516423285, 340.3365058177151, -0.03200000151991844, -0.01600000075995922, 0.9920000471174717, 0.0, 0.0, 0.0, 0.0, 0.0, 1.7404842354110663E9, 0.0, 2025-02-25 11:50:35.411
92.0, 308.9643550394103, 1783.5526790185831, 11.874182359315455, 243.03552867053077, -0.03200000151991844, -0.01600000075995922, 0.9920000471174717, 0.0, 0.0, 0.0, 0.0, 0.0, 1.740484235438826E9, 0.0, 2025-02-25 11:50:35.438
92.0, 163.51029601274058, 1595.7330332938582, 7.752812608145177, 118.19953809957951, -0.03200000151991844, -0.01600000075995922, 0.9920000471174717, 0.0, 0.0, 0.0, 0.0, 0.0, 1.7404842354388988E9, 0.0, 2025-02-25 11:50:35.438
93.0, 294.80696375714615, 1670.2767192106694, 11.821823759935796, 214.36732556018978, -0.03200000151991844, -0.01600000075995922, 0.9920000471174717, 0.0, 0.0, 0.0, 0.0, 0.0, 1.7404842354392624E9, 0.0, 2025-02-25 11:50:35.439
93.0, 432.455851576291, 1861.7577269920148, 15.991812210530043, 329.7638086429797, -0.03200000151991844, -0.01600000075995922, 0.9920000471174717, 0.0, 0.0, 0.0, 0.0, 0.0, 1.7404842354393508E9, 0.0, 2025-02-25 11:50:35.439
94.0, 327.3497032215819, 1806.8036370431073, 14.286417830735445, 238.78326242091134, -0.03200000151991844, -0.01600000075995922, 0.9920000471174717, 0.0, 0.0, 0.0, 0.0, 0.0, 1.7404842354400504E9, 0.0, 2025-02-25 11:50:35.440
94.0, 182.20979579119012, 1618.7371579213068, 13.512258539907634, 115.89575972687453, -0.03200000151991844, -0.01600000075995922, 0.9920000471174717, 0.0, 0.0, 0.0, 0.0, 0.0, 1.7404842354401915E9, 0.0, 2025-02-25 11:50:35.440
95.0, 308.3229621970095, 1675.635995847173, 11.384255465120077, 206.6145129520446, -0.03200000151991844, -0.01600000075995922, 0.9920000471174717, 0.0, 0.0, 0.0, 0.0, 0.0, 1.74048423544093E9, 0.0, 2025-02-25 11:50:35.440
95.0, 467.854004656896, 1871.5413052760996, 17.480292392894626, 342.1166981966235, -0.03200000151991844, -0.01600000075995922, 0.9920000471174717, 0.0, 0.0, 0.0, 0.0, 0.0, 1.740484235441039E9, 0.0, 2025-02-25 11:50:35.441
96.0, 330.3416231861338, 1791.959974118974, 11.877922259271145, 218.43072686204687, -0.03200000151991844, -0.01600000075995922, 0.9920000471174717, 0.0, 0.0, 0.0, 0.0, 0.0, 1.7404842354411683E9, 0.0, 2025-02-25 11:50:35.441
96.0, 202.75306624779478, 1604.091709694825, 11.182300867512822, 105.01639075577259, -0.03200000151991844, -0.01600000075995922, 0.9920000471174717, 0.0, 0.0, 0.0, 0.0, 0.0, 1.7404842354412231E9, 0.0, 2025-02-25 11:50:35.441
97.0, 335.1305650793947, 1667.9018827388063, 9.147795291617513, 192.7544437162578, -0.03200000151991844, -0.01600000075995922, 0.9920000471174717, 0.0, 0.0, 0.0, 0.0, 0.0, 1.7404842354686444E9, 0.0, 2025-02-25 11:50:35.468
97.0, 467.90262335631996, 1844.4345103972591, 8.766325496137142, 308.92134618991986, -0.03200000151991844, -0.01600000075995922, 0.9920000471174717, 0.0, 0.0, 0.0, 0.0, 0.0, 1.7404842354687629E9, 0.0, 2025-02-25 11:50:35.468
98.0, 348.56241577025503, 1777.269647093024, 10.146348579786718, 205.76742561208084, -0.03200000151991844, -0.01600000075995922, 0.9920000471174717, 0.0, 0.0, 0.0, 0.0, 0.0, 1.7404842354690657E9, 0.0, 2025-02-25 11:50:35.469
98.0, 186.60791813908145, 1580.1675696782768, 11.047664469107985, 67.44909570086747, -0.03200000151991844, -0.01600000075995922, 0.9920000471174717, 0.0, 0.0, 0.0, 0.0, 0.0, 1.7404842354691472E9, 0.0, 2025-02-25 11:50:35.469
99.0, 337.3558055530302, 1670.897542603314, 14.90350132342428, 186.46767189074308, -0.03200000151991844, -0.01600000075995922, 0.9920000471174717, 0.0, 0.0, 0.0, 0.0, 0.0, 1.7404842354696784E9, 0.0, 2025-02-25 11:50:35.469
99.0, 488.65158831048757, 1832.448131039273, 13.27664484269917, 307.2383912098594, -0.03200000151991844, -0.01600000075995922, 0.9920000471174717, 0.0, 0.0, 0.0, 0.0, 0.0, 1.740484235469822E9, 0.0, 2025-02-25 11:50:35.469
100.0, 356.0197762819007, 1751.3446606001817, 6.787918419577181, 187.45313552906737, -0.03200000151991844, -0.01600000075995922, 1.008000047877431, 0.0, 0.0, 0.0, 0.0, 0.0, 1.7404842354991636E9, 0.0, 2025-02-25 11:50:35.499
100.0, 195.34806433552876, 1567.6501245265827, 11.900361659005284, 59.48684869520366, -0.03200000151991844, -0.01600000075995922, 1.008000047877431, 0.0, 0.0, 0.0, 0.0, 0.0, 1.7404842354992857E9, 0.0, 2025-02-25 11:50:35.499
0.0, 334.2142895902507, 159.99292010441422, 11.06823391886428, 151.43602900579572, -0.03200000151991844, -0.01600000075995922, 1.008000047877431, 0.0, 0.0, 0.0, 0.0, 0.0, 1.7404842354996457E9, 0.0, 2025-02-25 11:50:35.499
1.0, 506.9920576931909, 368.69242728175595, 10.200577129144222, 292.76123848138377, -0.03200000151991844, -0.01600000075995922, 1.008000047877431, 0.0, 0.0, 0.0, 0.0, 0.0, 1.74048423550008E9, 0.0, 2025-02-25 11:50:35.500
1.0, 351.939545430243, 267.4047167818062, 11.965809908229858, 149.32485548080876, -0.03200000151991844, -0.01600000075995922, 1.008000047877431, 0.0, 0.0, 0.0, 0.0, 0.0, 1.740484235500167E9, 0.0, 2025-02-25 11:50:35.500
2.0, 199.83220438240096, 74.17717572115362, 11.606779512483627, 18.90519427601248, -0.03200000151991844, -0.01600000075995922, 1.008000047877431, 0.0, 0.0, 0.0, 0.0, 0.0, 1.7404842355004425E9, 0.0, 2025-02-25 11:50:35.500
2.0, 352.46126147406176, 164.8173910472542, 12.66143129998818, 133.33865312021226, -0.03200000151991844, -0.01600000075995922, 1.008000047877431, 0.0, 0.0, 0.0, 0.0, 0.0, 1.7404842355005274E9, 0.0, 2025-02-25 11:50:35.500
3.0, 504.95755211729556, 369.02527837781236, 11.763855310622603, 269.19612886058167, -0.03200000151991844, -0.01600000075995922, 1.008000047877431, 0.0, 0.0, 0.0, 0.0, 0.0, 1.74048423552877E9, 0.0, 2025-02-25 11:50:35.528
3.0, 344.9459325131029, 259.109618680086, 11.49458251381293, 121.93756810529158, -0.03200000151991844, -0.01600000075995922, 1.008000047877431, 0.0, 0.0, 0.0, 0.0, 0.0, 1.7404842355288548E9, 0.0, 2025-02-25 11:50:35.528
4.0, 196.26807972462848, 55.20466324593872, 12.71004999941215, -2.7525663673877716, -0.03200000151991844, -0.01600000075995922, 1.008000047877431, 0.0, 0.0, 0.0, 0.0, 0.0, 1.7404842355587268E9, 0.0, 2025-02-25 11:50:35.558
4.0, 350.1836624010466, 132.20172353368253, 11.258968816604465, 115.74616372864693, -0.03200000151991844, -0.01600000075995922, 1.008000047877431, 0.0, 0.0, 0.0, 0.0, 0.0, 1.7404842355590043E9, 0.0, 2025-02-25 11:50:35.559
5.0, 507.3959668884054, 329.3636393477209, 16.71922275191173, 255.25752172572538, -0.03200000151991844, -0.01600000075995922, 1.008000047877431, 0.0, 0.0, 0.0, 0.0, 0.0, 1.7404842355591276E9, 0.0, 2025-02-25 11:50:35.559
5.0, 354.37422030139714, 238.37187342578545, 10.787741422187537, 127.23700634250417, -0.03200000151991844, -0.01600000075995922, 1.008000047877431, 0.0, 0.0, 0.0, 0.0, 0.0, 1.7404842355592153E9, 0.0, 2025-02-25 11:50:35.559
6.0, 183.2943667783402, 37.05866866093129, 9.531135037075728, -6.275552125647664, -0.03200000151991844, -0.01600000075995922, 1.008000047877431, 0.0, 0.0, 0.0, 0.0, 0.0, 1.7404842355595984E9, 0.0, 2025-02-25 11:50:35.559
6.0, 323.60045351600274, 109.48931110277772, 8.540061548817903, 112.48871086724102, -0.03200000151991844, -0.01600000075995922, 1.008000047877431, 0.0, 0.0, 0.0, 0.0, 0.0, 1.740484235559708E9, 0.0, 2025-02-25 11:50:35.559
7.0, 497.7582447025925, 334.3713653883897, 12.478176202159375, 285.5656709666364, -0.03200000151991844, -0.01600000075995922, 1.008000047877431, 0.0, 0.0, 0.0, 0.0, 0.0, 1.740484235560931E9, 0.0, 2025-02-25 11:50:35.560
7.0, 329.99381249025464, 236.82355484412983, 14.381785279605538, 151.6884722528048, -0.03200000151991844, -0.01600000075995922, 1.008000047877431, 0.0, 0.0, 0.0, 0.0, 0.0, 1.7404842355610423E9, 0.0, 2025-02-25 11:50:35.561
8.0, 149.37721408018842, 25.40140049904585, 10.439930726308376, 4.2036475501954556, -0.03200000151991844, -0.01600000075995922, 1.008000047877431, 0.0, 0.0, 0.0, 0.0, 0.0, 1.7404842355614412E9, 0.0, 2025-02-25 11:50:35.561
8.0, 331.12513222685084, 156.08098475076258, 11.352466315496713, 168.0785838086158, -0.03200000151991844, -0.01600000075995922, 1.008000047877431, 0.0, 0.0, 0.0, 0.0, 0.0, 1.7404842355615673E9, 0.0, 2025-02-25 11:50:35.561
9.0, 498.32670949585736, 360.9695338732563, 16.408811055589467, 310.2677101739682, -0.03200000151991844, -0.01600000075995922, 1.008000047877431, 0.0, 0.0, 0.0, 0.0, 0.0, 1.7404842355891788E9, 0.0, 2025-02-25 11:50:35.589
9.0, 324.4138817563653, 241.19923779228702, 14.920330873224884, 157.06644838908687, -0.03200000151991844, -0.01600000075995922, 1.008000047877431, 0.0, 0.0, 0.0, 0.0, 0.0, 1.740484235589328E9, 0.0, 2025-02-25 11:50:35.589
10.0, 170.01024213572964, 60.46296258363873, 12.575413601007313, 42.432904897257686, -0.03200000151991844, -0.01600000075995922, 0.9920000471174717, 0.0, 0.0, 0.0, 0.0, 0.0, 1.74048423558947E9, 0.0, 2025-02-25 11:50:35.589
10.0, 322.5458017284982, 140.36966503690928, 13.742262387182564, 181.1196149541065, -0.03200000151991844, -0.01600000075995922, 0.9920000471174717, 0.0, 0.0, 0.0, 0.0, 0.0, 1.7404842355895936E9, 0.0, 2025-02-25 11:50:35.589
11.0, 501.91701345331967, 346.20066894823685, 14.075113483238965, 339.46136922808364, -0.03200000151991844, -0.01600000075995922, 0.9920000471174717, 0.0, 0.0, 0.0, 0.0, 0.0, 1.7404842356190536E9, 0.0, 2025-02-25 11:50:35.619
11.0, 345.14788711071014, 251.33436667220667, 12.066787207033485, 187.52793352818117, -0.03200000151991844, -0.01600000075995922, 0.9920000471174717, 0.0, 0.0, 0.0, 0.0, 0.0, 1.7404842356191518E9, 0.0, 2025-02-25 11:50:35.619
12.0, 170.94521712465212, 55.60857244115323, 10.133258929941803, 39.84489412792027, -0.03200000151991844, -0.01600000075995922, 0.9920000471174717, 0.0, 0.0, 0.0, 0.0, 0.0, 1.7404842356193683E9, 0.0, 2025-02-25 11:50:35.619
12.0, 342.7450013891794, 159.76478620711714, 14.594959577079862, 185.63741410057992, -0.03200000151991844, -0.01600000075995922, 0.9920000471174717, 0.0, 0.0, 0.0, 0.0, 0.0, 1.7404842356194344E9, 0.0, 2025-02-25 11:50:35.619
13.0, 529.7568287234753, 382.25330452108756, 10.795221222098917, 352.76793327042833, -0.03200000151991844, -0.01600000075995922, 0.9920000471174717, 0.0, 0.0, 0.0, 0.0, 0.0, 1.7404842356488721E9, 0.0, 2025-02-25 11:50:35.648
13.0, 345.06934921164066, 252.42641745926812, 10.903678320813924, 183.08493238082156, -0.03200000151991844, -0.01600000075995922, 0.9920000471174717, 0.0, 0.0, 0.0, 0.0, 0.0, 1.740484235649053E9, 0.0, 2025-02-25 11:50:35.649
14.0, 159.43380506103858, 24.844155405648053, 9.789188134018332, 18.815436677075922, -0.03200000151991844, -0.01600000075995922, 0.9920000471174717, 0.0, 0.0, 0.0, 0.0, 0.0, 1.7404842356494005E9, 0.0, 2025-02-25 11:50:35.649
14.0, 352.9960671677254, 156.63822984416038, 14.995128872338682, 181.02985735516995, -0.03200000151991844, -0.01600000075995922, 0.9920000471174717, 0.0, 0.0, 0.0, 0.0, 0.0, 1.740484235649554E9, 0.0, 2025-02-25 11:50:35.649
15.0, 511.681892237626, 341.16302370792255, 8.368026150856167, 321.4574908413924, -0.03200000151991844, -0.01600000075995922, 0.9920000471174717, 0.0, 0.0, 0.0, 0.0, 0.0, 1.7404842356507263E9, 0.0, 2025-02-25 11:50:35.650
15.0, 334.1600610408932, 200.87563647003844, 10.832620221655816, 148.30012289294973, -0.03200000151991844, -0.01600000075995922, 0.9920000471174717, 0.0, 0.0, 0.0, 0.0, 0.0, 1.7404842356509197E9, 0.0, 2025-02-25 11:50:35.650
16.0, 158.2819158746861, 10.378222377039492, 11.48710271390155, 9.68260098528117, -0.03200000151991844, -0.01600000075995922, 0.9920000471174717, 0.0, 0.0, 0.0, 0.0, 0.0, 1.7404842356514895E9, 0.0, 2025-02-25 11:50:35.651
16.0, 340.0036547216587, 121.11292016506195, 8.798114645760506, 166.23481313046068, -0.03200000151991844, -0.01600000075995922, 0.9920000471174717, 0.0, 0.0, 0.0, 0.0, 0.0, 1.7404842356516569E9, 0.0, 2025-02-25 11:50:35.651
17.0, 522.729556706734, 319.22103066788986, 13.8768987855874, 318.3945127776824, -0.03200000151991844, -0.01600000075995922, 0.9920000471174717, 0.0, 0.0, 0.0, 0.0, 0.0, 1.7404842356520016E9, 0.0, 2025-02-25 11:50:35.652
17.0, 339.3061633799225, 208.0824236846529, 14.138691782485694, 162.1003537294455, -0.03200000151991844, -0.01600000075995922, 0.9920000471174717, 0.0, 0.0, 0.0, 0.0, 0.0, 1.7404842356521575E9, 0.0, 2025-02-25 11:50:35.652
18.0, 143.64768734807149, -10.86814927123487, 7.115159665700048, -9.125355891883373, -0.03200000151991844, -0.01600000075995922, 0.9920000471174717, 0.0, 0.0, 0.0, 0.0, 0.0, 1.7404842356787572E9, 0.0, 2025-02-25 11:50:35.678
18.0, 331.57018032157794, 106.15332034230232, 12.986802596133202, 157.64052303228527, -0.03200000151991844, -0.01600000075995922, 0.9920000471174717, 0.0, 0.0, 0.0, 0.0, 0.0, 1.7404842356789646E9, 0.0, 2025-02-25 11:50:35.678
19.0, 527.93923734501, 348.34737152280286, 14.220969581510872, 343.5154207800515, -0.03200000151991844, -0.01600000075995922, 0.9920000471174717, 0.0, 0.0, 0.0, 0.0, 0.0, 1.7404842356791751E9, 0.0, 2025-02-25 11:50:35.679
19.0, 310.79316611774266, 205.06806432036683, 10.769041922409087, 155.76496320450678, -0.03200000151991844, -0.01600000075995922, 0.9920000471174717, 0.0, 0.0, 0.0, 0.0, 0.0, 1.740484235679249E9, 0.0, 2025-02-25 11:50:35.679
20.0, 141.40374737465754, 1.286525584757328, 12.040607907343656, 13.190627143718302, -0.03200000151991844, -0.01600000075995922, 0.9920000471174717, 0.0, 0.0, 0.0, 0.0, 0.0, 1.7404842357088196E9, 0.0, 2025-02-25 11:50:35.708
20.0, 339.6633238256909, 137.71807596832514, 15.043747571762651, 202.29492850322276, -0.03200000151991844, -0.01600000075995922, 0.9920000471174717, 0.0, 0.0, 0.0, 0.0, 0.0, 1.7404842357090282E9, 0.0, 2025-02-25 11:50:35.709
21.0, 513.443385116756, 346.56717914389446, 15.06618697149679, 364.99366622557864, -0.03200000151991844, -0.01600000075995922, 0.9920000471174717, 0.0, 0.0, 0.0, 0.0, 0.0, 1.7404842357093225E9, 0.0, 2025-02-25 11:50:35.709
21.0, 326.54562473110855, 221.96493232017383, 14.729595975484699, 194.35699084727094, -0.03200000151991844, -0.01600000075995922, 0.9920000471174717, 0.0, 0.0, 0.0, 0.0, 0.0, 1.7404842357095132E9, 0.0, 2025-02-25 11:50:35.709
22.0, 120.67722182022408, 18.5274643804878, 11.05701421899721, 50.60832620039582, -0.03200000151991844, -0.01600000075995922, 0.9920000471174717, 0.0, 0.0, 0.0, 0.0, 0.0, 1.740484235709716E9, 0.0, 2025-02-25 11:50:35.709
22.0, 326.6933507793583, 138.42865695990622, 10.372612527105957, 231.6643628552556, -0.03200000151991844, -0.01600000075995922, 0.9920000471174717, 0.0, 0.0, 0.0, 0.0, 0.0, 1.7404842357098584E9, 0.0, 2025-02-25 11:50:35.709
23.0, 523.0250088032335, 364.69447422912344, 15.185863770078868, 414.1135122436099, -0.03200000151991844, -0.01600000075995922, 0.9920000471174717, 0.0, 0.0, 0.0, 0.0, 0.0, 1.7404842357103915E9, 0.0, 2025-02-25 11:50:35.710
23.0, 309.0728121381253, 230.52182341879234, 18.36477873241529, 240.3540204023011, -0.03200000151991844, -0.01600000075995922, 0.9920000471174717, 0.0, 0.0, 0.0, 0.0, 0.0, 1.7404842357105062E9, 0.0, 2025-02-25 11:50:35.710
24.0, 125.27729876572266, 15.445786816999316, 12.919484396930784, 87.65951506141573, -0.03200000151991844, -0.01600000075995922, 0.9920000471174717, 0.0, 0.0, 0.0, 0.0, 0.0, 1.7404842357390268E9, 0.0, 2025-02-25 11:50:35.739
24.0, 335.5419540745206, 162.21816057804972, 9.572273936588317, 285.22347012069076, -0.03200000151991844, -0.01600000075995922, 0.9920000471174717, 0.0, 0.0, 0.0, 0.0, 0.0, 1.7404842357392209E9, 0.0, 2025-02-25 11:50:35.739
25.0, 512.7290642252192, 396.96981084672734, 15.571073465514928, 464.0486564519815, -0.03200000151991844, -0.01600000075995922, 0.9920000471174717, 0.0, 0.0, 0.0, 0.0, 0.0, 1.740484235739586E9, 0.0, 2025-02-25 11:50:35.739
25.0, 297.46042277570814, 245.12613274576142, 12.343539803754538, 250.35451288381591, -0.03200000151991844, -0.01600000075995922, 0.9920000471174717, 0.0, 0.0, 0.0, 0.0, 0.0, 1.7404842357398334E9, 0.0, 2025-02-25 11:50:35.739
26.0, 110.39249694207683, 48.82065402157605, 12.040607907343656, 104.37312796339393, -0.03200000151991844, -0.01600000075995922, 0.9920000471174717, 0.0, 0.0, 0.0, 0.0, 0.0, 1.7404842357687597E9, 0.0, 2025-02-25 11:50:35.768
26.0, 328.14817186212167, 221.60029207449406, 11.670357811730355, 314.4507882744074, -0.03200000151991844, -0.01600000075995922, 0.9920000471174717, 0.0, 0.0, 0.0, 0.0, 0.0, 1.7404842357688892E9, 0.0, 2025-02-25 11:50:35.768
27.0, 514.9879637984559, 444.06263108877465, 13.413151191081852, 469.2134582907893, -0.03200000151991844, -0.01600000075995922, 0.9920000471174717, 0.0, 0.0, 0.0, 0.0, 0.0, 1.7404842357690349E9, 0.0, 2025-02-25 11:50:35.769
27.0, 286.981223099865, 299.84086909750476, 10.959776820149273, 271.6607229313813, -0.03200000151991844, -0.01600000075995922, 0.9920000471174717, 0.0, 0.0, 0.0, 0.0, 0.0, 1.7404842357691555E9, 0.0, 2025-02-25 11:50:35.769
28.0, 101.14372435165569, 93.81913028843701, 11.920931108761579, 107.16683323029429, -0.03200000151991844, -0.01600000075995922, 0.9920000471174717, 0.0, 0.0, 0.0, 0.0, 0.0, 1.740484235769878E9, 0.0, 2025-02-25 11:50:35.769
28.0, 335.5419540745206, 234.89563641697168, 5.04325509024784, 304.1473638964817, -0.03200000151991844, -0.01600000075995922, 0.9920000471174717, 0.0, 0.0, 0.0, 0.0, 0.0, 1.740484235769997E9, 0.0, 2025-02-25 11:50:35.769
29.0, 513.443385116756, 444.88166917907074, 11.823693709913641, 468.9741046936251, -0.03200000151991844, -0.01600000075995922, 0.9920000471174717, 0.0, 0.0, 0.0, 0.0, 0.0, 1.7404842357704363E9, 0.0, 2025-02-25 11:50:35.770
29.0, 288.1443319860846, 280.65144242485985, 9.961223531980067, 252.04120776383206, -0.03200000151991844, -0.01600000075995922, 0.9920000471174717, 0.0, 0.0, 0.0, 0.0, 0.0, 1.7404842357705443E9, 0.0, 2025-02-25 11:50:35.770
30.0, 102.695782833267, 66.18874941579998, 9.770488634239882, 96.70633305422962, -0.03200000151991844, -0.01600000075995922, 0.9920000471174717, 0.0, 0.0, 0.0, 0.0, 0.0, 1.7404842357988622E9, 0.0, 2025-02-25 11:50:35.798
30.0, 326.6821310794912, 211.63345869258046, 15.193343569990247, 302.1352977203205, -0.03200000151991844, -0.01600000075995922, 0.9920000471174717, 0.0, 0.0, 0.0, 0.0, 0.0, 1.7404842357990248E9, 0.0, 2025-02-25 11:50:35.799
31.0, 521.5290488209575, 440.09833713574335, 10.870019221212715, 464.03369685215876, -0.03200000151991844, -0.01600000075995922, 0.9920000471174717, 0.0, 0.0, 0.0, 0.0, 0.0, 1.7404842357993705E9, 0.0, 2025-02-25 11:50:35.799
31.0, 765.4097948814742, 270.0787452501245, 12.597853000741452, 236.53184264758602, -0.03200000151991844, -0.01600000075995922, 0.9920000471174717, 0.0, 0.0, 0.0, 0.0, 0.0, 1.7404842357995584E9, 0.0, 2025-02-25 11:50:35.799
32.0, 566.3218305902556, 40.93694491498172, 9.561054236721247, 60.111411987803876, -0.03200000151991844, -0.01600000075995922, 0.9920000471174717, 0.0, 0.0, 0.0, 0.0, 0.0, 1.7404842358284993E9, 0.0, 2025-02-25 11:50:35.828
32.0, 801.9691868983209, 200.1669254284352, 10.305294327903539, 274.0972677525133, -0.03200000151991844, -0.01600000075995922, 0.9920000471174717, 0.0, 0.0, 0.0, 0.0, 0.0, 1.7404842358286352E9, 0.0, 2025-02-25 11:50:35.828
33.0, 1010.0142115834169, 415.90866422234103, 9.804147733841091, 432.2333275289275, -0.03200000151991844, -0.01600000075995922, 0.9920000471174717, 0.0, 0.0, 0.0, 0.0, 0.0, 1.7404842358585665E9, 0.0, 2025-02-25 11:50:35.858
33.0, 772.2500719004311, 241.89859908400103, 13.996575584169477, 201.24214666569605, -0.03200000151991844, -0.01600000075995922, 0.9920000471174717, 0.0, 0.0, 0.0, 0.0, 0.0, 1.7404842358586905E9, 0.0, 2025-02-25 11:50:35.858
34.0, 608.5004222905263, 30.326848740689456, 13.151358194183558, 28.026810267940164, -0.03200000151991844, -0.01600000075995922, 0.9920000471174717, 0.0, 0.0, 0.0, 0.0, 0.0, 1.7404842358590517E9, 0.0, 2025-02-25 11:50:35.859
34.0, 835.5534885004163, 185.4990378022194, 14.882931873667985, 234.1476564258337, -0.03200000151991844, -0.01600000075995922, 0.9920000471174717, 0.0, 0.0, 0.0, 0.0, 0.0, 1.7404842358591597E9, 0.0, 2025-02-25 11:50:35.859
35.0, 608.7958743870258, -17.551350492052734, 11.763855310622603, 454.43337366590276, -0.03200000151991844, -0.01600000075995922, 0.9920000471174717, 0.0, 0.0, 0.0, 0.0, 0.0, 1.740484235859636E9, 0.0, 2025-02-25 11:50:35.859
35.0, 818.1349044567905, -231.87005735281855, 14.366825679782778, 672.871580327861, -0.03200000151991844, -0.01600000075995922, 0.9920000471174717, 0.0, 0.0, 0.0, 0.0, 0.0, 1.740484235859831E9, 0.0, 2025-02-25 11:50:35.859
36.0, 579.4301799349487, 0.362770295701921, 10.23423622874543, 464.88265414210036, -0.03200000151991844, -0.01600000075995922, 0.9920000471174717, 0.0, 0.0, 0.0, 0.0, 0.0, 1.7404842358606212E9, 0.0, 2025-02-25 11:50:35.860
36.0, 336.4021310643293, 181.63198124803603, 13.166317794006318, 699.4342197631486, -0.03200000151991844, -0.01600000075995922, 0.9920000471174717, 0.0, 0.0, 0.0, 0.0, 0.0, 1.7404842358607242E9, 0.0, 2025-02-25 11:50:35.860
37.0, 564.9118883069605, 407.2096569254063, 15.036267771851271, 878.1995676951483, -0.03200000151991844, -0.01600000075995922, 0.9920000471174717, 0.0, 0.0, 0.0, 0.0, 0.0, 1.7404842358612547E9, 0.0, 2025-02-25 11:50:35.861
37.0, 789.7228844934143, 226.20597886992618, 15.406517867464572, 636.7927654553205, -0.03200000151991844, -0.01600000075995922, 0.9920000471174717, 0.0, 0.0, 0.0, 0.0, 0.0, 1.740484235861617E9, 0.0, 2025-02-25 11:50:35.861
38.0, 586.2704569539055, 23.445432822220027, 8.540061548817903, 473.5854013389908, -0.03200000151991844, -0.01600000075995922, 0.9920000471174717, 0.0, 0.0, 0.0, 0.0, 0.0, 1.740484235861714E9, 0.0, 2025-02-25 11:50:35.861
38.0, 359.42495519155636, 195.89969957899302, 9.407718338537961, 697.7587445829995, -0.03200000151991844, -0.01600000075995922, 0.9920000471174717, 0.0, 0.0, 0.0, 0.0, 0.0, 1.7404842358618557E9, 0.0, 2025-02-25 11:50:35.861
39.0, 558.1912880865857, 411.75737527152523, 18.70884952833876, 869.7062548957765, -0.03200000151991844, -0.01600000075995922, 0.9920000471174717, 0.0, 0.0, 0.0, 0.0, 0.0, 1.7404842358886287E9, 0.0, 2025-02-25 11:50:35.888
39.0, 328.98777940217406, 258.7318887845613, 3.704370906110853, 667.8040158879012, -0.03200000151991844, -0.01600000075995922, 0.9920000471174717, 0.0, 0.0, 0.0, 0.0, 0.0, 1.740484235888733E9, 0.0, 2025-02-25 11:50:35.888
40.0, 102.33301253756508, 27.80241627059877, 12.493135801982135, 491.08439323166385, -0.03200000151991844, -0.01600000075995922, 0.9920000471174717, 0.0, 0.0, 0.0, 0.0, 0.0, 1.7404842358889053E9, 0.0, 2025-02-25 11:50:35.888
40.0, 347.1842626365833, 200.77278922125697, 14.415444379206747, 733.7964205560274, -0.03200000151991844, -0.01600000075995922, 0.9920000471174717, 0.0, 0.0, 0.0, 0.0, 0.0, 1.7404842358889697E9, 0.0, 2025-02-25 11:50:35.888
41.0, 576.8159898659214, -32.16687951888889, 14.464063078630716, 944.3733575111255, -0.03200000151991844, -0.01600000075995922, 0.9920000471174717, 0.0, 0.0, 0.0, 0.0, 0.0, 1.74048423591861E9, 0.0, 2025-02-25 11:50:35.918
41.0, 818.3779979539104, -196.78231596853584, 12.126625606324524, 736.0534501792863, -0.03200000151991844, -0.01600000075995922, 0.9920000471174717, 0.0, 0.0, 0.0, 0.0, 0.0, 1.7404842359187384E9, 0.0, 2025-02-25 11:50:35.918
42.0, 600.9981829794124, -413.8143202471547, 10.578307024668902, 576.8739583152346, 0.0, -0.01600000075995922, 0.9920000471174717, 0.0, 0.0, 0.0, 0.0, 0.0, 1.740484235919006E9, 0.0, 2025-02-25 11:50:35.919
42.0, 423.64651723066345, -657.3996142111719, 7.803301257546991, 396.67248880025, 0.0, -0.01600000075995922, 0.9920000471174717, 0.0, 0.0, 0.0, 0.0, 0.0, 1.7404842359191175E9, 0.0, 2025-02-25 11:50:35.919
43.0, 651.0604837862775, -884.8266704166308, 10.810180821921676, 620.4475326989777, 0.0, -0.01600000075995922, 0.9920000471174717, 0.0, 0.0, 0.0, 0.0, 0.0, 1.7404842359198103E9, 0.0, 2025-02-25 11:50:35.919
43.0, 851.52473126119, -1063.9155196947977, 12.844686397816986, 376.28816409176216, 0.0, -0.01600000075995922, 0.9920000471174717, 0.0, 0.0, 0.0, 0.0, 0.0, 1.7404842359199293E9, 0.0, 2025-02-25 11:50:35.919
44.0, 607.4495104029775, -1263.418612881098, 11.315067315939814, 218.9225237062201, 0.0, -0.01600000075995922, 0.9920000471174717, 0.0, 0.0, 0.0, 0.0, 0.0, 1.7404842359203265E9, 0.0, 2025-02-25 11:50:35.920
44.0, 377.98981857160106, -1502.373910699971, 11.05327431904152, 57.917960663791746, 0.0, -0.01600000075995922, 0.9920000471174717, 0.0, 0.0, 0.0, 0.0, 0.0, 1.7404842359204826E9, 0.0, 2025-02-25 11:50:35.920
45.0, 553.9764208365232, -1265.0679087615572, 8.61859944788739, 269.02970331255347, 0.0, -0.01600000075995922, 0.9920000471174717, 0.0, 0.0, 0.0, 0.0, 0.0, 1.7404842359487748E9, 0.0, 2025-02-25 11:50:35.948
45.0, 750.7119880556129, -1440.757188980002, 9.501215837430209, 36.74825696460903, 0.0, -0.01600000075995922, 0.9920000471174717, 0.0, 0.0, 0.0, 0.0, 0.0, 1.740484235948935E9, 0.0, 2025-02-25 11:50:35.948
46.0, 538.119245024398, -1658.7840066468343, 5.948310879524797, -117.46090785833076, 0.0, -0.01600000075995922, 0.9920000471174717, 0.0, 0.0, 0.0, 0.0, 0.0, 1.7404842359490936E9, 0.0, 2025-02-25 11:50:35.949
46.0, 342.4832083922811, -1497.3998437589034, 8.375505950767547, 120.86795671796426, 0.0, -0.01600000075995922, 0.9920000471174717, 0.0, 0.0, 0.0, 0.0, 0.0, 1.7404842359491704E9, 0.0, 2025-02-25 11:50:35.949
47.0, 104.40865701297298, -1263.706585177686, 14.333166580181569, 314.46200797427446, 0.0, -0.01600000075995922, 0.9920000471174717, 0.0, 0.0, 0.0, 0.0, 0.0, 1.7404842359788103E9, 0.0, 2025-02-25 11:50:35.978
47.0, 308.4482488455251, -1459.6848226557486, 8.22590995253995, 93.47131959255785, 0.0, -0.01600000075995922, 0.9920000471174717, 0.0, 0.0, 0.0, 0.0, 0.0, 1.7404842359789338E9, 0.0, 2025-02-25 11:50:35.978
48.0, 123.65792208490893, -1666.349824257195, 4.302754899021238, -67.77259704703465, 0.0, -0.01600000075995922, 0.9920000471174717, 0.0, 0.0, 0.0, 0.0, 0.0, 1.740484235979137E9, 0.0, 2025-02-25 11:50:35.979
48.0, -52.31746048014611, -1478.8162808790803, 8.23712965240702, -279.67345858644694, 0.0, -0.01600000075995922, 0.9920000471174717, 0.0, 0.0, 0.0, 0.0, 0.0, 1.7404842359793286E9, 0.0, 2025-02-25 11:50:35.979
49.0, -272.2385374745354, -1257.6591669493355, 14.400484779383987, -53.45626001665369, 0.0, -0.01600000075995922, 0.9920000471174717, 0.0, 0.0, 0.0, 0.0, 0.0, 1.7404842359799056E9, 0.0, 2025-02-25 11:50:35.979
49.0, -515.6424462907016, -1468.7765194480307, 16.7678414513357, -261.60413195053115, 0.0, -0.01600000075995922, 0.9920000471174717, 0.0, 0.0, 0.0, 0.0, 0.0, 1.7404842359800966E9, 0.0, 2025-02-25 11:50:35.980
50.0, -714.685531782452, -1231.240513662342, 12.67639089981094, -415.77589777391404, 0.0, -0.01600000075995922, 0.9760000463575125, 0.0, 0.0, 0.0, 0.0, 0.0, 1.7404842359804893E9, 0.0, 2025-02-25 11:50:35.980
50.0, -791.36657052394, -1015.3585286200978, 13.297214292455465, -605.2635388788767, 0.0, -0.01600000075995922, 0.9760000463575125, 0.0, 0.0, 0.0, 0.0, 0.0, 1.7404842359805667E9, 0.0, 2025-02-25 11:50:35.980
51.0, -623.495551162865, -880.9259547628462, 12.321100404020399, -490.2298260917887, 0.0, -0.01600000075995922, 0.9760000463575125, 0.0, 0.0, 0.0, 0.0, 0.0, 1.7404842360089693E9, 0.0, 2025-02-25 11:50:36.008
51.0, -467.5922116599977, -1120.3393903262913, 16.420030755456537, -288.8530430276878, 0.0, -0.01600000075995922, 0.9760000463575125, 0.0, 0.0, 0.0, 0.0, 0.0, 1.74048423600908E9, 0.0, 2025-02-25 11:50:36.009
52.0, -302.12781792040914, -915.2844156557694, 10.114559430163354, -92.99448234820738, -0.01600000075995922, -0.01600000075995922, 0.9760000463575125, 0.0, 0.0, 0.0, 0.0, 0.0, 1.7404842360093138E9, 0.0, 2025-02-25 11:50:36.009
52.0, -535.9519730000757, -1088.0023453594185, 10.499769125599414, -283.11042664572597, -0.01600000075995922, -0.01600000075995922, 0.9760000463575125, 0.0, 0.0, 0.0, 0.0, 0.0, 1.7404842360094051E9, 0.0, 2025-02-25 11:50:36.009
53.0, -327.4880795199424, -901.6674399171025, 10.223016528878361, -172.03726791171357, -0.01600000075995922, -0.01600000075995922, 0.9760000463575125, 0.0, 0.0, 0.0, 0.0, 0.0, 1.7404842360388975E9, 0.0, 2025-02-25 11:50:36.038
53.0, -136.27634453540668, -1042.6205293470994, 12.216383205261081, 63.72415534500033, -0.01600000075995922, -0.01600000075995922, 0.9760000463575125, 0.0, 0.0, 0.0, 0.0, 0.0, 1.740484236039009E9, 0.0, 2025-02-25 11:50:36.039
54.0, -221.28240057826042, -1169.6144421924837, 12.092966506723315, -54.44733350491151, -0.01600000075995922, -0.01600000075995922, 0.9760000463575125, 0.0, 0.0, 0.0, 0.0, 0.0, 1.740484236039134E9, 0.0, 2025-02-25 11:50:36.039
54.0, -341.2116424073465, -1351.266992890276, 10.825140421744436, -203.15510549303144, -0.01600000075995922, -0.01600000075995922, 0.9760000463575125, 0.0, 0.0, 0.0, 0.0, 0.0, 1.740484236039222E9, 0.0, 2025-02-25 11:50:36.039
55.0, -271.59527468215674, -1201.4559504152276, 13.07656019506976, -126.88171584671363, -0.01600000075995922, -0.01600000075995922, 0.9760000463575125, 0.0, 0.0, 0.0, 0.0, 0.0, 1.7404842360398443E9, 0.0, 2025-02-25 11:50:36.039
55.0, -60.86500182887539, -1444.0931797404774, 11.550681013148278, 24.473905310034752, -0.01600000075995922, -0.01600000075995922, 0.9760000463575125, 0.0, 0.0, 0.0, 0.0, 0.0, 1.7404842360399032E9, 0.0, 2025-02-25 11:50:36.039
56.0, -174.10730253718793, -1639.9872694695368, 9.45633703796193, -136.77375122951344, -0.01600000075995922, -0.01600000075995922, 0.9760000463575125, 0.0, 0.0, 0.0, 0.0, 0.0, 1.7404842360405343E9, 0.0, 2025-02-25 11:50:36.040
56.0, -388.00153075298294, -1411.5915791755542, 13.51038858992979, -360.6572522269562, -0.01600000075995922, -0.01600000075995922, 0.9760000463575125, 0.0, 0.0, 0.0, 0.0, 0.0, 1.7404842360406392E9, 0.0, 2025-02-25 11:50:36.040
57.0, -622.4147200756706, -1603.6017828006297, 13.327133492100984, -589.4456320162863, -0.01600000075995922, -0.01600000075995922, 0.9760000463575125, 0.0, 0.0, 0.0, 0.0, 0.0, 1.7404842360687726E9, 0.0, 2025-02-25 11:50:36.068
57.0, -609.7495488757268, -1552.1538490601815, 18.005748336669058, -618.0596065772697, -0.01600000075995922, -0.01600000075995922, 0.9760000463575125, 0.0, 0.0, 0.0, 0.0, 0.0, 1.7404842360689116E9, 0.0, 2025-02-25 11:50:36.068
58.0, -471.5228465134278, -1505.5846148119308, 10.189357429277152, -526.0244085676968, -0.01600000075995922, -0.01600000075995922, 0.9760000463575125, 0.0, 0.0, 0.0, 0.0, 0.0, 1.7404842360689986E9, 0.0, 2025-02-25 11:50:36.068
58.0, -609.5868632276542, -1285.1586513235234, 8.865432844962925, -732.6407914697193, -0.01600000075995922, -0.01600000075995922, 0.9760000463575125, 0.0, 0.0, 0.0, 0.0, 0.0, 1.7404842360690548E9, 0.0, 2025-02-25 11:50:36.069
59.0, -565.2335197031498, -1192.8186514675617, 6.920684868004173, -682.4307646146044, -0.01600000075995922, -0.01600000075995922, 0.9760000463575125, 0.0, 0.0, 0.0, 0.0, 0.0, 1.7404842360988796E9, 0.0, 2025-02-25 11:50:36.098
59.0, -718.1879480909556, -1217.4720719754696, 14.823093474376947, -794.6876016845927, -0.01600000075995922, -0.01600000075995922, 0.9760000463575125, 0.0, 0.0, 0.0, 0.0, 0.0, 1.7404842360989993E9, 0.0, 2025-02-25 11:50:36.098
60.0, -566.4826462883502, -1070.123753621243, 10.496029225643724, -617.7043160814792, -0.01600000075995922, -0.01600000075995922, 0.9760000463575125, 0.0, 0.0, 0.0, 0.0, 0.0, 1.7404842360991423E9, 0.0, 2025-02-25 11:50:36.099
60.0, -345.4919579066336, -894.9954583961517, 8.839253545273095, -380.6694568898529, -0.01600000075995922, -0.01600000075995922, 0.9760000463575125, 0.0, 0.0, 0.0, 0.0, 0.0, 1.740484236099238E9, 0.0, 2025-02-25 11:50:36.099
61.0, -458.34343906957656, -959.7780054286122, 11.932150808628649, -473.62093038856983, -0.01600000075995922, -0.01600000075995922, 0.9760000463575125, 0.0, 0.0, 0.0, 0.0, 0.0, 1.7404842360998693E9, 0.0, 2025-02-25 11:50:36.099
61.0, -598.675705106929, -1036.0719645246863, 11.610519412439317, -603.5861937487498, -0.01600000075995922, -0.01600000075995922, 0.9760000463575125, 0.0, 0.0, 0.0, 0.0, 0.0, 1.740484236100603E9, 0.0, 2025-02-25 11:50:36.100
62.0, -571.4193142298609, -1049.8048771619797, 8.498922649305314, -588.4283792283386, -0.03200000151991844, -0.01600000075995922, 0.9760000463575125, 0.0, 0.0, 0.0, 0.0, 0.0, 1.7404842361008627E9, 0.0, 2025-02-25 11:50:36.100
62.0, -357.9084257595241, -920.6399523923174, 12.837206597905606, -396.5191529020667, -0.03200000151991844, -0.01600000075995922, 0.9760000463575125, 0.0, 0.0, 0.0, 0.0, 0.0, 1.7404842361009352E9, 0.0, 2025-02-25 11:50:36.100
63.0, -407.46584007237107, -934.5411605276167, 12.64647170016542, -454.15849101915956, -0.03200000151991844, -0.01600000075995922, 0.9760000463575125, 0.0, 0.0, 0.0, 0.0, 0.0, 1.7404842361288033E9, 0.0, 2025-02-25 11:50:36.128
63.0, -211.2688184469007, -1110.2267008461058, 12.549234301317483, -697.2893871385604, -0.03200000151991844, -0.01600000075995922, 0.9760000463575125, 0.0, 0.0, 0.0, 0.0, 0.0, 1.7404842361289108E9, 0.0, 2025-02-25 11:50:36.128
64.0, -321.5603380901739, -1182.0009908457287, 12.784847998525947, -728.4857626189478, -0.03200000151991844, -0.01600000075995922, 0.9760000463575125, 0.0, 0.0, 0.0, 0.0, 0.0, 1.7404842361290042E9, 0.0, 2025-02-25 11:50:36.129
64.0, -355.7000148356892, -1408.6931567098945, 12.444517102558166, -879.3888558810577, -0.03200000151991844, -0.01600000075995922, 0.9760000463575125, 0.0, 0.0, 0.0, 0.0, 0.0, 1.7404842361290886E9, 0.0, 2025-02-25 11:50:36.129
65.0, -288.71279677934945, -1241.5925567396916, 14.2845478807576, -749.5301796696149, -0.03200000151991844, -0.01600000075995922, 0.9760000463575125, 0.0, 0.0, 0.0, 0.0, 0.0, 1.7404842361595511E9, 0.0, 2025-02-25 11:50:36.159
65.0, -87.91569820838049, -1428.310801927466, 14.568780277390033, -989.5606987257488, -0.03200000151991844, -0.01600000075995922, 0.9760000463575125, 0.0, 0.0, 0.0, 0.0, 0.0, 1.7404842361596608E9, 0.0, 2025-02-25 11:50:36.159
66.0, 5.794974981341511, -1206.8937649508007, 9.209503640886396, -1229.3125952351838, -0.03200000151991844, -0.01600000075995922, 0.9760000463575125, 0.0, 0.0, 0.0, 0.0, 0.0, 1.7404842361597881E9, 0.0, 2025-02-25 11:50:36.159
66.0, 105.40721030114219, -1128.6812371774577, 5.604240083601326, -1083.980082957074, -0.03200000151991844, -0.01600000075995922, 0.9760000463575125, 0.0, 0.0, 0.0, 0.0, 0.0, 1.7404842361598828E9, 0.0, 2025-02-25 11:50:36.159
67.0, 142.7912502582185, -1300.3688244433142, 13.51412848988548, -1300.3856539931148, -0.03200000151991844, -0.01600000075995922, 0.9760000463575125, 0.0, 0.0, 0.0, 0.0, 0.0, 1.7404842361600575E9, 0.0, 2025-02-25 11:50:36.160
67.0, -93.04684094758704, -1541.3717174879275, 13.839499786030501, -1120.730209871661, -0.03200000151991844, -0.01600000075995922, 0.9760000463575125, 0.0, 0.0, 0.0, 0.0, 0.0, 1.740484236160143E9, 0.0, 2025-02-25 11:50:36.160
