%OpenBCI Raw EXG Data
%Number of channels = 4
%Sample Rate = 200 Hz
%Board = OpenBCI_GUI$BoardGanglionNative
Sample Index, EXG Channel 0, EXG Channel 1, EXG Channel 2, EXG Channel 3, Accel Channel 0, Accel Channel 1, Accel Channel 2, Other, Other, Other, Other, Other, Timestamp, Marker Channel, Timestamp (Formatted)
0.0, -150.78528641350567, -255.358499024529, 11.88353210920468, -305.3048629327677, 0.0, 0.0, 0.0, 0.0, 0.0, 0.0, 0.0, 0.0, 1.740484008603614E9, 0.0, 2025-02-25 11:46:48.603
1.0, -99.04377052653581, -156.9430316905491, 10.017322031315416, -217.6378680714406, 0.0, -0.01600000075995922, 0.0, 0.0, 0.0, 0.0, 0.0, 0.0, 1.7404840086041627E9, 0.0, 2025-02-25 11:46:48.604
1.0, -194.31585194775835, -323.91273516230285, 9.258122340310365, -303.335805606097, 0.0, -0.01600000075995922, 0.0, 0.0, 0.0, 0.0, 0.0, 0.0, 1.7404840086042597E9, 0.0, 2025-02-25 11:46:48.604
2.0, -221.1608538297005, -384.1438239486888, 13.416891091037542, -364.8870790768415, -0.03200000151991844, -0.01600000075995922, 0.0, 0.0, 0.0, 0.0, 0.0, 0.0, 1.740484008633452E9, 0.0, 2025-02-25 11:46:48.633
2.0, -145.2203152794391, -250.8818387775682, 13.936737184878439, -292.2264327877201, -0.03200000151991844, -0.01600000075995922, 0.0, 0.0, 0.0, 0.0, 0.0, 0.0, 1.7404840086335337E9, 0.0, 2025-02-25 11:46:48.633
3.0, -99.52247772086412, -162.95679081929848, 11.674097711686045, -217.29753717547283, -0.03200000151991844, -0.01600000075995922, 0.0, 0.0, 0.0, 0.0, 0.0, 0.0, 1.7404840086343305E9, 0.0, 2025-02-25 11:46:48.634
3.0, -188.73218131391332, -307.65165015496314, 9.523655237164348, -287.8787990892306, -0.03200000151991844, -0.01600000075995922, 0.0, 0.0, 0.0, 0.0, 0.0, 0.0, 1.7404840086343837E9, 0.0, 2025-02-25 11:46:48.634
4.0, -227.80665605096146, -390.5540124727413, 12.747448998969048, -370.22765621356666, -0.03200000151991844, -0.01600000075995922, 0.0, 0.0, 0.0, 0.0, 0.0, 0.0, 1.7404840086346505E9, 0.0, 2025-02-25 11:46:48.634
4.0, -127.57546728849411, -240.11466680513695, 14.063893783371896, -294.29085756326094, -0.03200000151991844, -0.01600000075995922, 0.0, 0.0, 0.0, 0.0, 0.0, 0.0, 1.74048400863525E9, 0.0, 2025-02-25 11:46:48.635
5.0, -102.18154658935964, -167.4334510662593, 11.947110408451408, -231.82330860337242, -0.03200000151991844, -0.01600000075995922, 0.0, 0.0, 0.0, 0.0, 0.0, 0.0, 1.7404840086365783E9, 0.0, 2025-02-25 11:46:48.636
5.0, -197.64062300836667, -317.4875870384276, 11.217829917091876, -303.78833350073546, -0.03200000151991844, -0.01600000075995922, 0.0, 0.0, 0.0, 0.0, 0.0, 0.0, 1.7404840086366415E9, 0.0, 2025-02-25 11:46:48.636
6.0, -220.491411737632, -376.4770290395245, 14.755775275174528, -366.85426645353436, -0.03200000151991844, -0.01600000075995922, 0.0, 0.0, 0.0, 0.0, 0.0, 0.0, 1.7404840086640184E9, 0.0, 2025-02-25 11:46:48.664
6.0, -151.47342800535262, -239.93889150721952, 12.721269699279219, -305.2001457340084, -0.03200000151991844, -0.01600000075995922, 0.0, 0.0, 0.0, 0.0, 0.0, 0.0, 1.740484008664119E9, 0.0, 2025-02-25 11:46:48.664
7.0, -109.40329340379685, -166.78270847396925, 14.157391282264143, -229.20911853434518, -0.03200000151991844, -0.01600000075995922, 0.0, 0.0, 0.0, 0.0, 0.0, 0.0, 1.740484008664327E9, 0.0, 2025-02-25 11:46:48.664
7.0, -199.76114628324285, -311.6608229074627, 9.740569434594363, -302.6177448146045, -0.03200000151991844, -0.01600000075995922, 0.0, 0.0, 0.0, 0.0, 0.0, 0.0, 1.7404840086644096E9, 0.0, 2025-02-25 11:46:48.664
8.0, -230.77239671582356, -374.41634416393936, 13.121438994538039, -362.5496416045353, -0.03200000151991844, -0.01600000075995922, 0.0, 0.0, 0.0, 0.0, 0.0, 0.0, 1.7404840086943688E9, 0.0, 2025-02-25 11:46:48.694
8.0, -126.66667159926146, -222.21176571724936, 13.86193918576464, -288.31449743406847, -0.03200000151991844, -0.01600000075995922, 0.0, 0.0, 0.0, 0.0, 0.0, 0.0, 1.7404840086944284E9, 0.0, 2025-02-25 11:46:48.694
9.0, -108.76003061141819, -167.80744106182829, 7.118899565655738, -233.3865867848508, -0.03200000151991844, -0.01600000075995922, 0.0, 0.0, 0.0, 0.0, 0.0, 0.0, 1.7404840086944814E9, 0.0, 2025-02-25 11:46:48.694
9.0, -185.09699855698273, -298.3243396654725, 14.161131182219833, -285.2870484199375, -0.03200000151991844, -0.01600000075995922, 0.0, 0.0, 0.0, 0.0, 0.0, 0.0, 1.7404840086945145E9, 0.0, 2025-02-25 11:46:48.694
10.0, -217.5630700723268, -362.8338740011677, 7.881839156616479, -339.7549513746053, -0.03200000151991844, -0.01600000075995922, 0.9920000471174717, 0.0, 0.0, 0.0, 0.0, 0.0, 1.7404840086945963E9, 0.0, 2025-02-25 11:46:48.694
10.0, -118.82036149222404, -219.0889492542483, 13.431850690860301, -265.7105421018787, -0.03200000151991844, -0.01600000075995922, 0.9920000471174717, 0.0, 0.0, 0.0, 0.0, 0.0, 1.740484008694721E9, 0.0, 2025-02-25 11:46:48.694
11.0, -106.26925724092871, -154.02964962506667, 12.582893400918692, -208.16470148367807, -0.03200000151991844, 0.0, 0.9920000471174717, 0.0, 0.0, 0.0, 0.0, 0.0, 1.7404840086953447E9, 0.0, 2025-02-25 11:46:48.695
11.0, -195.01895313942805, -307.6329506551847, 13.544047689530998, -291.48032274656, -0.03200000151991844, 0.0, 0.9920000471174717, 0.0, 0.0, 0.0, 0.0, 0.0, 1.7404840086954193E9, 0.0, 2025-02-25 11:46:48.695
12.0, -197.5957442088984, -357.55687516368926, 13.85445938585326, -320.5318656023592, -0.01600000075995922, 0.0, 0.9920000471174717, 0.0, 0.0, 0.0, 0.0, 0.0, 1.7404840087234747E9, 0.0, 2025-02-25 11:46:48.723
12.0, -135.75088859163225, -222.44363951450214, 17.57191994180903, -270.7818464417942, -0.01600000075995922, 0.0, 0.9920000471174717, 0.0, 0.0, 0.0, 0.0, 0.0, 1.7404840087235448E9, 0.0, 2025-02-25 11:46:48.723
13.0, -121.89455925580114, -157.06644838908687, 12.403378203045577, -214.89278150396422, -0.01600000075995922, 0.0, 0.9920000471174717, 0.0, 0.0, 0.0, 0.0, 0.0, 1.740484008754592E9, 0.0, 2025-02-25 11:46:48.754
13.0, -198.10063070291653, -290.5378679577261, 12.552974201273173, -275.3164751380682, -0.01600000075995922, 0.0, 0.9920000471174717, 0.0, 0.0, 0.0, 0.0, 0.0, 1.740484008754681E9, 0.0, 2025-02-25 11:46:48.754
14.0, -212.0467176376842, -355.48123068828136, 10.64562522387132, -335.10999562963843, -0.01600000075995922, 0.0, 0.9920000471174717, 0.0, 0.0, 0.0, 0.0, 0.0, 1.7404840087553933E9, 0.0, 2025-02-25 11:46:48.755
14.0, -112.49245076719671, -209.75415896484628, 14.69593687588349, -255.1041858275421, -0.01600000075995922, 0.0, 0.9920000471174717, 0.0, 0.0, 0.0, 0.0, 0.0, 1.7404840087555156E9, 0.0, 2025-02-25 11:46:48.755
15.0, -96.87462855223566, -160.2042244519107, 11.113112718332559, -219.38814125070348, -0.01600000075995922, 0.0, 0.9920000471174717, 0.0, 0.0, 0.0, 0.0, 0.0, 1.7404840087558067E9, 0.0, 2025-02-25 11:46:48.755
15.0, -184.9922813582234, -304.5624927915633, 8.424124650191516, -288.9072715770453, -0.01600000075995922, 0.0, 0.9920000471174717, 0.0, 0.0, 0.0, 0.0, 0.0, 1.740484008755866E9, 0.0, 2025-02-25 11:46:48.755
16.0, -186.79491313686594, -346.7672637915239, 11.408564814832062, -319.35379711631685, -0.01600000075995922, 0.0, 0.9920000471174717, 0.0, 0.0, 0.0, 0.0, 0.0, 1.7404840087559755E9, 0.0, 2025-02-25 11:46:48.755
16.0, -108.9769448088482, -219.81448984565213, 13.996575584169477, -260.1792300674133, -0.01600000075995922, 0.0, 0.9920000471174717, 0.0, 0.0, 0.0, 0.0, 0.0, 1.7404840087560315E9, 0.0, 2025-02-25 11:46:48.756
17.0, -107.00227763224393, -162.90443221991882, 11.917191208805889, -217.13298157742247, -0.01600000075995922, 0.0, 0.9920000471174717, 0.0, 0.0, 0.0, 0.0, 0.0, 1.740484008756268E9, 0.0, 2025-02-25 11:46:48.756
17.0, -191.60816437983885, -304.9963211864233, 14.157391282264143, -284.8008614256978, -0.01600000075995922, 0.0, 0.9920000471174717, 0.0, 0.0, 0.0, 0.0, 0.0, 1.7404840087563443E9, 0.0, 2025-02-25 11:46:48.756
18.0, -195.47522093402222, -373.3542125765234, 15.245702169369906, -330.3790221856907, -0.01600000075995922, 0.0, 0.9920000471174717, 0.0, 0.0, 0.0, 0.0, 0.0, 1.7404840087846398E9, 0.0, 2025-02-25 11:46:48.784
18.0, -108.52441691420972, -223.4982913020067, 16.221816057804972, -268.61644436744973, -0.01600000075995922, 0.0, 0.9920000471174717, 0.0, 0.0, 0.0, 0.0, 0.0, 1.7404840087848487E9, 0.0, 2025-02-25 11:46:48.784
19.0, -121.8010617569089, -181.24490160262212, 15.384078467730433, -232.986417489592, -0.01600000075995922, 0.0, 0.9920000471174717, 0.0, 0.0, 0.0, 0.0, 0.0, 1.7404840087852876E9, 0.0, 2025-02-25 11:46:48.785
19.0, -209.64570186613128, -324.05485136061907, 11.023355119396001, -297.26594797801226, -0.01600000075995922, 0.0, 0.9920000471174717, 0.0, 0.0, 0.0, 0.0, 0.0, 1.740484008785346E9, 0.0, 2025-02-25 11:46:48.785
20.0, -202.38655605213717, -365.41440497059375, 10.316514027770609, -323.3667097687721, -0.01600000075995922, 0.0, 0.5120000243186951, 0.0, 0.0, 0.0, 0.0, 0.0, 1.7404840088136888E9, 0.0, 2025-02-25 11:46:48.813
20.0, -119.80395518057048, -227.76177725149319, 11.816213910002261, -257.3256864012219, -0.01600000075995922, 0.0, 0.5120000243186951, 0.0, 0.0, 0.0, 0.0, 0.0, 1.7404840088137815E9, 0.0, 2025-02-25 11:46:48.813
21.0, -106.83398213423789, -171.37156571960077, 10.993435919750482, -229.97205812530592, -0.01600000075995922, 0.0, 0.5120000243186951, 0.0, 0.0, 0.0, 0.0, 0.0, 1.7404840088139794E9, 0.0, 2025-02-25 11:46:48.813
21.0, -210.21416665939614, -323.99127306137234, 11.644178512040526, -307.50579405669123, -0.01600000075995922, 0.0, 0.5120000243186951, 0.0, 0.0, 0.0, 0.0, 0.0, 1.7404840088140469E9, 0.0, 2025-02-25 11:46:48.814
22.0, -201.02523246826604, -356.5695415753871, 13.237375893164426, -331.4598532728851, -0.03200000151991844, 0.0, 0.5120000243186951, 0.0, 0.0, 0.0, 0.0, 0.0, 1.740484008814586E9, 0.0, 2025-02-25 11:46:48.814
22.0, -105.48013835027814, -212.91811432735994, 15.50001536635682, -251.05761407548562, -0.03200000151991844, 0.0, 0.5120000243186951, 0.0, 0.0, 0.0, 0.0, 0.0, 1.7404840088146513E9, 0.0, 2025-02-25 11:46:48.814
23.0, -131.61081934068352, -189.001454110723, 12.30614080419764, -248.15545170987025, -0.03200000151991844, 0.0, 0.5120000243186951, 0.0, 0.0, 0.0, 0.0, 0.0, 1.740484008815222E9, 0.0, 2025-02-25 11:46:48.815
23.0, -204.5257788267918, -321.5191991906613, 10.103339730296284, -310.7034085188061, -0.03200000151991844, 0.0, 0.5120000243186951, 0.0, 0.0, 0.0, 0.0, 0.0, 1.7404840088152716E9, 0.0, 2025-02-25 11:46:48.815
24.0, -200.06033827969804, -353.6972984094173, 9.220723340753466, -333.2400456517935, -0.03200000151991844, 0.0, 0.5120000243186951, 0.0, 0.0, 0.0, 0.0, 0.0, 1.7404840088437552E9, 0.0, 2025-02-25 11:46:48.843
24.0, -105.72323184739798, -218.4905652613379, 11.651658311951905, -261.690149649512, -0.03200000151991844, 0.0, 0.5120000243186951, 0.0, 0.0, 0.0, 0.0, 0.0, 1.740484008843836E9, 0.0, 2025-02-25 11:46:48.843
25.0, -115.21509793493897, -184.4350362648256, 10.27537512825802, -238.8767599198036, -0.03200000151991844, 0.0, 0.5120000243186951, 0.0, 0.0, 0.0, 0.0, 0.0, 1.7404840088440332E9, 0.0, 2025-02-25 11:46:48.844
25.0, -201.57499776175246, -324.14086905959994, 14.860492473933846, -310.72958781849593, -0.03200000151991844, 0.0, 0.5120000243186951, 0.0, 0.0, 0.0, 0.0, 0.0, 1.7404840088441043E9, 0.0, 2025-02-25 11:46:48.844
26.0, -176.289534161333, -345.282523509115, 11.135552118066698, -320.5243858024478, -0.03200000151991844, 0.0, 0.5120000243186951, 0.0, 0.0, 0.0, 0.0, 0.0, 1.740484008873547E9, 0.0, 2025-02-25 11:46:48.873
26.0, -106.58714873716235, -206.5228854031302, 14.149911482352763, -257.64357789745554, -0.03200000151991844, 0.0, 0.5120000243186951, 0.0, 0.0, 0.0, 0.0, 0.0, 1.7404840088736503E9, 0.0, 2025-02-25 11:46:48.873
27.0, -120.30136187467724, -176.11375886341557, 9.766748734284192, -244.2846552557312, -0.03200000151991844, 0.0, 0.5120000243186951, 0.0, 0.0, 0.0, 0.0, 0.0, 1.7404840088738768E9, 0.0, 2025-02-25 11:46:48.873
27.0, -215.88759489217773, -325.7452861405909, 9.83032703353092, -320.72634040005505, -0.03200000151991844, 0.0, 0.5120000243186951, 0.0, 0.0, 0.0, 0.0, 0.0, 1.740484008873957E9, 0.0, 2025-02-25 11:46:48.873
28.0, -179.71902242070064, -356.04221568163484, 12.051827607210726, -309.08777173794806, -0.03200000151991844, 0.0, 0.5120000243186951, 0.0, 0.0, 0.0, 0.0, 0.0, 1.7404840088747003E9, 0.0, 2025-02-25 11:46:48.874
28.0, -100.13208141364157, -212.69746022997424, 12.025648307520896, -220.41287383856252, -0.03200000151991844, 0.0, 0.5120000243186951, 0.0, 0.0, 0.0, 0.0, 0.0, 1.7404840088747933E9, 0.0, 2025-02-25 11:46:48.874
29.0, -142.78190050832927, -219.89302774472162, 11.49458251381293, -219.84066914534196, -0.03200000151991844, 0.0, 0.5120000243186951, 0.0, 0.0, 0.0, 0.0, 0.0, 1.7404840088751876E9, 0.0, 2025-02-25 11:46:48.875
29.0, -233.40902618458495, -362.11955310963094, 13.024201595690101, -290.7772215548903, -0.03200000151991844, 0.0, 0.5120000243186951, 0.0, 0.0, 0.0, 0.0, 0.0, 1.740484008875266E9, 0.0, 2025-02-25 11:46:48.875
30.0, -196.48873382201418, -382.4795684684068, 10.170657929498702, -303.1039318088442, -0.03200000151991844, 0.0, 0.7520000357180834, 0.0, 0.0, 0.0, 0.0, 0.0, 1.7404840089035957E9, 0.0, 2025-02-25 11:46:48.903
30.0, -121.06804136559367, -245.6571985394694, 17.85615233844146, -243.86952636064962, -0.03200000151991844, 0.0, 0.7520000357180834, 0.0, 0.0, 0.0, 0.0, 0.0, 1.7404840089036613E9, 0.0, 2025-02-25 11:46:48.903
31.0, -149.2220082320273, -222.3501420156099, 19.55032701836899, -235.41361256083474, -0.03200000151991844, 0.0, 0.7520000357180834, 0.0, 0.0, 0.0, 0.0, 0.0, 1.7404840089039583E9, 0.0, 2025-02-25 11:46:48.903
31.0, -243.85830666078255, -370.78864120692015, 11.558160813059658, -321.4518809914589, -0.03200000151991844, 0.0, 0.7520000357180834, 0.0, 0.0, 0.0, 0.0, 0.0, 1.7404840089040933E9, 0.0, 2025-02-25 11:46:48.904
32.0, -213.72593271778896, -384.16252344846725, 11.128072318155318, -316.34691755194217, -0.03200000151991844, 0.0, 0.7520000357180834, 0.0, 0.0, 0.0, 0.0, 0.0, 1.7404840089335942E9, 0.0, 2025-02-25 11:46:48.933
32.0, -112.30171586945653, -245.93395113619044, 14.905371273402125, -240.2418234036304, -0.03200000151991844, 0.0, 0.7520000357180834, 0.0, 0.0, 0.0, 0.0, 0.0, 1.740484008933686E9, 0.0, 2025-02-25 11:46:48.933
33.0, -155.78927255421877, -241.356313590426, 13.600146188866347, -251.52510156994686, -0.03200000151991844, 0.0, 0.7520000357180834, 0.0, 0.0, 0.0, 0.0, 0.0, 1.7404840089339278E9, 0.0, 2025-02-25 11:46:48.933
33.0, -232.9415386901237, -364.08300058636814, 13.611365888733417, -302.8570984117687, -0.03200000151991844, 0.0, 0.7520000357180834, 0.0, 0.0, 0.0, 0.0, 0.0, 1.7404840089340124E9, 0.0, 2025-02-25 11:46:48.934
34.0, -198.34746409999207, -377.2848474299535, 10.619445924181491, -303.7284951014444, -0.03200000151991844, 0.0, 0.7520000357180834, 0.0, 0.0, 0.0, 0.0, 0.0, 1.7404840089347258E9, 0.0, 2025-02-25 11:46:48.934
34.0, -112.15585977118462, -227.6458403528668, 15.410257767420262, -229.4222928318195, -0.03200000151991844, 0.0, 0.7520000357180834, 0.0, 0.0, 0.0, 0.0, 0.0, 1.7404840089348176E9, 0.0, 2025-02-25 11:46:48.934
35.0, -142.68840300943702, -216.00353179080412, 14.075113483238965, -230.18149252282456, -0.03200000151991844, 0.0, 0.7520000357180834, 0.0, 0.0, 0.0, 0.0, 0.0, 1.7404840089351904E9, 0.0, 2025-02-25 11:46:48.935
35.0, -240.26052290340886, -365.75473586656153, 7.810781057458371, -309.35330463480204, -0.03200000151991844, 0.0, 0.7520000357180834, 0.0, 0.0, 0.0, 0.0, 0.0, 1.7404840089352453E9, 0.0, 2025-02-25 11:46:48.935
36.0, -180.44830291206017, -360.1000071335584, 8.902831844519824, -291.48032274656, -0.03200000151991844, 0.0, 0.7520000357180834, 0.0, 0.0, 0.0, 0.0, 0.0, 1.740484008963955E9, 0.0, 2025-02-25 11:46:48.963
36.0, -94.51849158015102, -232.97519778972492, 13.772181586828083, -224.91571338521317, -0.03200000151991844, 0.0, 0.7520000357180834, 0.0, 0.0, 0.0, 0.0, 0.0, 1.7404840089640095E9, 0.0, 2025-02-25 11:46:48.964
37.0, -150.78528641350567, -215.1957134003751, 13.932997284922749, -237.7585298330523, -0.03200000151991844, 0.0, 0.7520000357180834, 0.0, 0.0, 0.0, 0.0, 0.0, 1.7404840089641666E9, 0.0, 2025-02-25 11:46:48.964
37.0, -230.03937632450834, -352.8371214196086, 10.458630226086825, -299.3602919531986, -0.03200000151991844, 0.0, 0.7520000357180834, 0.0, 0.0, 0.0, 0.0, 0.0, 1.7404840089642427E9, 0.0, 2025-02-25 11:46:48.964
38.0, -188.53770651621744, -361.9400379117578, 13.48794919019565, -293.0286413282156, -0.03200000151991844, 0.0, 0.7520000357180834, 0.0, 0.0, 0.0, 0.0, 0.0, 1.740484008993677E9, 0.0, 2025-02-25 11:46:48.993
38.0, -84.75361279584467, -213.62869531894103, 14.729595975484699, -212.44314703298733, -0.03200000151991844, 0.0, 0.7520000357180834, 0.0, 0.0, 0.0, 0.0, 0.0, 1.7404840089937372E9, 0.0, 2025-02-25 11:46:48.993
39.0, -142.65100400988013, -212.4543667328544, 11.232789516914636, -235.2789761624299, -0.03200000151991844, 0.0, 0.7520000357180834, 0.0, 0.0, 0.0, 0.0, 0.0, 1.7404840090237439E9, 0.0, 2025-02-25 11:46:49.023
39.0, -228.35642134444788, -349.51983015891165, 13.07656019506976, -299.0012615574524, -0.03200000151991844, 0.0, 0.7520000357180834, 0.0, 0.0, 0.0, 0.0, 0.0, 1.7404840090238304E9, 0.0, 2025-02-25 11:46:49.023
40.0, -165.93001128407195, -345.40220030769706, 11.382385515142232, -275.174358939752, -0.03200000151991844, 0.0, 0.8800000417977571, 0.0, 0.0, 0.0, 0.0, 0.0, 1.7404840090240088E9, 0.0, 2025-02-25 11:46:49.024
40.0, -94.4511733809486, -216.13442828925326, 14.553820677567273, -219.83692924538627, -0.03200000151991844, 0.0, 0.8800000417977571, 0.0, 0.0, 0.0, 0.0, 0.0, 1.740484009024077E9, 0.0, 2025-02-25 11:46:49.024
41.0, -145.43348957691342, -203.1943744425662, 9.239422840531915, -236.73005734523758, -0.03200000151991844, 0.0, 0.8800000417977571, 0.0, 0.0, 0.0, 0.0, 0.0, 1.7404840090246103E9, 0.0, 2025-02-25 11:46:49.024
41.0, -240.33906080247834, -348.70453196857125, 14.71463637566194, -304.143623996526, -0.03200000151991844, 0.0, 0.8800000417977571, 0.0, 0.0, 0.0, 0.0, 0.0, 1.7404840090246956E9, 0.0, 2025-02-25 11:46:49.024
42.0, -187.35589813021943, -349.36649426072836, 11.419784514699131, -287.70302379131317, -0.03200000151991844, 0.0, 0.8800000417977571, 0.0, 0.0, 0.0, 0.0, 0.0, 1.7404840090252905E9, 0.0, 2025-02-25 11:46:49.025
42.0, -97.94050003960729, -207.55135789094493, 14.770734874997288, -222.09582881862298, -0.03200000151991844, 0.0, 0.8800000417977571, 0.0, 0.0, 0.0, 0.0, 0.0, 1.7404840090253541E9, 0.0, 2025-02-25 11:46:49.025
43.0, -170.65911477804184, -212.88071532780305, 6.65515197115019, -256.4692493113689, -0.03200000151991844, 0.0, 0.8800000417977571, 0.0, 0.0, 0.0, 0.0, 0.0, 1.7404840090269613E9, 0.0, 2025-02-25 11:46:49.026
43.0, -241.49468988878652, -342.0923888469115, 10.398791826795787, -311.2643935121596, -0.03200000151991844, 0.0, 0.8800000417977571, 0.0, 0.0, 0.0, 0.0, 0.0, 1.7404840090270967E9, 0.0, 2025-02-25 11:46:49.027
44.0, -178.42127713607624, -340.832042561844, 12.64647170016542, -283.978083435446, -0.03200000151991844, 0.0, 0.8800000417977571, 0.0, 0.0, 0.0, 0.0, 0.0, 1.74048400902733E9, 0.0, 2025-02-25 11:46:49.027
44.0, -85.6324892854318, -211.73630594136193, 7.500369361136109, -223.14674070617184, -0.03200000151991844, 0.0, 0.8800000417977571, 0.0, 0.0, 0.0, 0.0, 0.0, 1.7404840090275636E9, 0.0, 2025-02-25 11:46:49.027
45.0, -146.00569427013397, -206.5602844026871, 18.978122325148433, -244.37441285466775, -0.03200000151991844, 0.0, 0.8800000417977571, 0.0, 0.0, 0.0, 0.0, 0.0, 1.7404840090537152E9, 0.0, 2025-02-25 11:46:49.053
45.0, -247.14941862178966, -352.52296982333064, 1.366933433804661, -329.2271329993382, -0.03200000151991844, 0.0, 0.8800000417977571, 0.0, 0.0, 0.0, 0.0, 0.0, 1.740484009053805E9, 0.0, 2025-02-25 11:46:49.053
46.0, -170.86293932562694, -340.74228496290743, 13.424370890948921, -281.71170406229794, -0.03200000151991844, 0.0, 0.8800000417977571, 0.0, 0.0, 0.0, 0.0, 0.0, 1.7404840090539553E9, 0.0, 2025-02-25 11:46:49.053
46.0, -94.68304717820138, -210.84994965186343, 10.193097329232842, -224.59034208906814, -0.03200000151991844, 0.0, 0.8800000417977571, 0.0, 0.0, 0.0, 0.0, 0.0, 1.740484009054006E9, 0.0, 2025-02-25 11:46:49.054
47.0, -155.46016135811806, -223.48707160213962, 7.339553663041443, -266.57819889159873, -0.03200000151991844, 0.0, 0.8800000417977571, 0.0, 0.0, 0.0, 0.0, 0.0, 1.74048400908364E9, 0.0, 2025-02-25 11:46:49.083
47.0, -230.78735631564632, -354.41535920090973, 7.403131962288171, -322.69726767670363, -0.03200000151991844, 0.0, 0.8800000417977571, 0.0, 0.0, 0.0, 0.0, 0.0, 1.7404840090837154E9, 0.0, 2025-02-25 11:46:49.083
48.0, -178.5484337345697, -348.1211075754836, 8.783155045937747, -290.51916845794767, -0.03200000151991844, 0.0, 0.8800000417977571, 0.0, 0.0, 0.0, 0.0, 0.0, 1.7404840090839083E9, 0.0, 2025-02-25 11:46:49.083
48.0, -79.33075786009431, -207.16614819550887, 13.323393592145294, -217.70144637068734, -0.03200000151991844, 0.0, 0.8800000417977571, 0.0, 0.0, 0.0, 0.0, 0.0, 1.740484009083982E9, 0.0, 2025-02-25 11:46:49.083
49.0, -160.73716019559652, -232.3506344971247, 7.317114263307303, -261.39095765305683, -0.03200000151991844, 0.0, 0.8800000417977571, 0.0, 0.0, 0.0, 0.0, 0.0, 1.7404840090846016E9, 0.0, 2025-02-25 11:46:49.084
49.0, -246.5846937284805, -362.2841087076813, 12.68013079976663, -323.69582096487284, -0.03200000151991844, 0.0, 0.8800000417977571, 0.0, 0.0, 0.0, 0.0, 0.0, 1.740484009084668E9, 0.0, 2025-02-25 11:46:49.084
50.0, -169.9167446368374, -337.611988699995, 11.808734110090882, -279.20223119203, -0.03200000151991844, 0.0, 0.944000044837594, 0.0, 0.0, 0.0, 0.0, 0.0, 1.7404840090851912E9, 0.0, 2025-02-25 11:46:49.085
50.0, -83.1865947144106, -214.90774110378698, 16.057260459754616, -230.2787299216725, -0.03200000151991844, 0.0, 0.944000044837594, 0.0, 0.0, 0.0, 0.0, 0.0, 1.74048400908526E9, 0.0, 2025-02-25 11:46:49.085
51.0, -157.1842552376911, -231.056629112456, 9.359099639113992, -269.6598764550872, -0.03200000151991844, 0.0, 0.944000044837594, 0.0, 0.0, 0.0, 0.0, 0.0, 1.7404840091136813E9, 0.0, 2025-02-25 11:46:49.113
51.0, -247.4299111184664, -380.0972521966323, 7.6275259596295655, -343.95485902484506, -0.03200000151991844, 0.0, 0.944000044837594, 0.0, 0.0, 0.0, 0.0, 0.0, 1.7404840091137638E9, 0.0, 2025-02-25 11:46:49.113
52.0, -163.80948800919577, -348.70453196857125, 7.03288186667487, -284.26605573203415, -0.03200000151991844, 0.0, 0.944000044837594, 0.0, 0.0, 0.0, 0.0, 0.0, 1.7404840091138613E9, 0.0, 2025-02-25 11:46:49.113
52.0, -58.600492405705154, -202.62590964930132, 16.049780659843236, -220.26327784033492, -0.03200000151991844, 0.0, 0.944000044837594, 0.0, 0.0, 0.0, 0.0, 0.0, 1.7404840091139193E9, 0.0, 2025-02-25 11:46:49.113
53.0, -170.50951877981424, -238.77952252095565, 14.778214674908668, -284.9336278741248, -0.03200000151991844, 0.0, 0.944000044837594, 0.0, 0.0, 0.0, 0.0, 0.0, 1.7404840091441958E9, 0.0, 2025-02-25 11:46:49.144
53.0, -257.67349709710106, -379.49886820372194, 10.462370126042515, -348.827948667109, -0.03200000151991844, 0.0, 0.944000044837594, 0.0, 0.0, 0.0, 0.0, 0.0, 1.7404840091444073E9, 0.0, 2025-02-25 11:46:49.144
54.0, -169.97658303612843, -353.3233084138483, 9.8378068334423, -289.7263096673414, -0.03200000151991844, 0.0, 0.944000044837594, 0.0, 0.0, 0.0, 0.0, 0.0, 1.7404840091447468E9, 0.0, 2025-02-25 11:46:49.144
54.0, -78.95676786452532, -214.65716780675575, 12.885825297329575, -227.59722165344283, -0.03200000151991844, 0.0, 0.944000044837594, 0.0, 0.0, 0.0, 0.0, 0.0, 1.7404840091448135E9, 0.0, 2025-02-25 11:46:49.144
55.0, -162.9698804691434, -241.44607118936256, 11.831173509825021, -280.456967627164, -0.03200000151991844, 0.0, 0.944000044837594, 0.0, 0.0, 0.0, 0.0, 0.0, 1.7404840091453E9, 0.0, 2025-02-25 11:46:49.145
55.0, -261.89584414707497, -387.68924910668284, 7.956637155730277, -344.8262557145208, -0.03200000151991844, 0.0, 0.944000044837594, 0.0, 0.0, 0.0, 0.0, 0.0, 1.7404840091453424E9, 0.0, 2025-02-25 11:46:49.145
56.0, -157.04774888930842, -336.6882334109396, 9.04120814288035, -270.7687567919493, -0.03200000151991844, 0.0, 0.944000044837594, 0.0, 0.0, 0.0, 0.0, 0.0, 1.7404840091454017E9, 0.0, 2025-02-25 11:46:49.145
56.0, -62.602185358293355, -201.31320476485416, 5.514482484664768, -203.26917244167998, -0.03200000151991844, 0.0, 0.944000044837594, 0.0, 0.0, 0.0, 0.0, 0.0, 1.7404840091454515E9, 0.0, 2025-02-25 11:46:49.145
57.0, -156.28667924832553, -240.7616694974713, 12.552974201273173, -270.38915694644675, -0.03200000151991844, 0.0, 0.944000044837594, 0.0, 0.0, 0.0, 0.0, 0.0, 1.7404840091733294E9, 0.0, 2025-02-25 11:46:49.173
57.0, -261.4320965525694, -373.7618616716936, 15.48879566648975, -332.91093445569277, -0.03200000151991844, 0.0, 0.944000044837594, 0.0, 0.0, 0.0, 0.0, 0.0, 1.740484009173474E9, 0.0, 2025-02-25 11:46:49.173
58.0, -172.04848761158064, -338.3001302918419, 8.745756046380848, -278.2448168033734, -0.03200000151991844, 0.0, 0.944000044837594, 0.0, 0.0, 0.0, 0.0, 0.0, 1.7404840091738691E9, 0.0, 2025-02-25 11:46:49.173
58.0, -61.4353365721181, -203.53844523848966, 12.149065006058663, -203.25047294190153, -0.03200000151991844, 0.0, 0.944000044837594, 0.0, 0.0, 0.0, 0.0, 0.0, 1.740484009173942E9, 0.0, 2025-02-25 11:46:49.173
59.0, -167.61857611406595, -241.99957638280466, 9.721869934815913, -273.6952285072766, -0.03200000151991844, 0.0, 0.944000044837594, 0.0, 0.0, 0.0, 0.0, 0.0, 1.7404840092035873E9, 0.0, 2025-02-25 11:46:49.203
59.0, -268.2237548721023, -376.3349128412083, 11.229049616958946, -346.4269328955561, -0.03200000151991844, 0.0, 0.944000044837594, 0.0, 0.0, 0.0, 0.0, 0.0, 1.740484009203662E9, 0.0, 2025-02-25 11:46:49.203
60.0, -151.58375505404547, -319.4809537148103, 14.748295475263149, -263.4609922785312, -0.03200000151991844, 0.0, 0.9600000455975533, 0.0, 0.0, 0.0, 0.0, 0.0, 1.740484009203908E9, 0.0, 2025-02-25 11:46:49.203
60.0, -67.64357049856335, -185.22415515547618, 12.833466697949916, -208.84162337565795, -0.03200000151991844, 0.0, 0.9600000455975533, 0.0, 0.0, 0.0, 0.0, 0.0, 1.7404840092039692E9, 0.0, 2025-02-25 11:46:49.203
61.0, -166.21611363068223, -226.77444366319105, 16.517268154304475, -276.9639010685496, -0.03200000151991844, -0.01600000075995922, 0.9600000455975533, 0.0, 0.0, 0.0, 0.0, 0.0, 1.740484009204594E9, 0.0, 2025-02-25 11:46:49.204
61.0, -262.22121544322, -359.2099109441042, 14.082593283150345, -341.50896445382386, -0.03200000151991844, -0.01600000075995922, 0.9600000455975533, 0.0, 0.0, 0.0, 0.0, 0.0, 1.740484009204668E9, 0.0, 2025-02-25 11:46:49.204
62.0, -151.3818004564382, -319.09574401937425, 9.781708334106952, -266.0190838482231, -0.03200000151991844, -0.01600000075995922, 0.9600000455975533, 0.0, 0.0, 0.0, 0.0, 0.0, 1.7404840092051818E9, 0.0, 2025-02-25 11:46:49.205
62.0, -54.66237775236368, -173.77632139110938, 14.26210848102346, -196.17832212569192, -0.03200000151991844, -0.01600000075995922, 0.9600000455975533, 0.0, 0.0, 0.0, 0.0, 0.0, 1.7404840092052484E9, 0.0, 2025-02-25 11:46:49.205
63.0, -171.4557134686038, -238.88049981975928, 12.481916102115065, -291.65048819454387, -0.03200000151991844, -0.01600000075995922, 0.9600000455975533, 0.0, 0.0, 0.0, 0.0, 0.0, 1.7404840092336E9, 0.0, 2025-02-25 11:46:49.233
63.0, -266.3388452944346, -362.6842780029401, 9.403978438582271, -354.7631698967889, -0.03200000151991844, -0.01600000075995922, 0.9600000455975533, 0.0, 0.0, 0.0, 0.0, 0.0, 1.740484009233679E9, 0.0, 2025-02-25 11:46:49.233
64.0, -140.82032298156992, -314.91453586891294, 11.128072318155318, -266.0190838482231, -0.03200000151991844, -0.01600000075995922, 0.9600000455975533, 0.0, 0.0, 0.0, 0.0, 0.0, 1.7404840092338428E9, 0.0, 2025-02-25 11:46:49.233
64.0, -68.87399758398533, -187.46061532897875, 15.784247762989253, -209.3764290693216, -0.03200000151991844, -0.01600000075995922, 0.9600000455975533, 0.0, 0.0, 0.0, 0.0, 0.0, 1.7404840092338843E9, 0.0, 2025-02-25 11:46:49.233
65.0, -177.1628008009866, -230.11043442366645, 14.613659076858312, -287.3832623451017, -0.03200000151991844, -0.01600000075995922, 0.9600000455975533, 0.0, 0.0, 0.0, 0.0, 0.0, 1.7404840092633815E9, 0.0, 2025-02-25 11:46:49.263
65.0, -286.9307344504632, -382.89843726344407, 11.969549808185548, -359.8082949370146, -0.03200000151991844, -0.01600000075995922, 0.9600000455975533, 0.0, 0.0, 0.0, 0.0, 0.0, 1.7404840092634504E9, 0.0, 2025-02-25 11:46:49.263
66.0, -154.8374680154957, -325.1917809471488, 5.712697182316333, -270.6902188928798, -0.03200000151991844, -0.01600000075995922, 0.9600000455975533, 0.0, 0.0, 0.0, 0.0, 0.0, 1.7404840092640824E9, 0.0, 2025-02-25 11:46:49.264
66.0, -57.736575515940785, -193.0742051624693, 16.158237758558244, -199.28243908891454, -0.03200000151991844, -0.01600000075995922, 0.9600000455975533, 0.0, 0.0, 0.0, 0.0, 0.0, 1.7404840092642448E9, 0.0, 2025-02-25 11:46:49.264
67.0, -188.4984375666827, -247.03348172316328, 9.639592135790735, -300.25225809263065, -0.03200000151991844, -0.01600000075995922, 0.9600000455975533, 0.0, 0.0, 0.0, 0.0, 0.0, 1.7404840092937446E9, 0.0, 2025-02-25 11:46:49.293
67.0, -280.02687913225964, -372.0377677921206, 10.136998829897493, -362.34020720701665, -0.03200000151991844, -0.01600000075995922, 0.9600000455975533, 0.0, 0.0, 0.0, 0.0, 0.0, 1.740484009293832E9, 0.0, 2025-02-25 11:46:49.293
68.0, -167.08938027033582, -319.24160011764616, 12.197683705482632, -274.40393954887986, -0.03200000151991844, -0.01600000075995922, 0.9600000455975533, 0.0, 0.0, 0.0, 0.0, 0.0, 1.7404840092941604E9, 0.0, 2025-02-25 11:46:49.294
68.0, -72.2922661434859, -176.05018056416884, 13.951696784701198, -195.7781528304331, -0.03200000151991844, -0.01600000075995922, 0.9600000455975533, 0.0, 0.0, 0.0, 0.0, 0.0, 1.7404840092941978E9, 0.0, 2025-02-25 11:46:49.294
69.0, -202.11541330534965, -247.60194651642814, 10.226756428834051, -300.62624808819965, -0.03200000151991844, -0.01600000075995922, 0.9600000455975533, 0.0, 0.0, 0.0, 0.0, 0.0, 1.7404840092944589E9, 0.0, 2025-02-25 11:46:49.294
69.0, -301.84919537371024, -388.0333199026063, 16.461169654969126, -376.33865274116397, -0.03200000151991844, -0.01600000075995922, 0.9600000455975533, 0.0, 0.0, 0.0, 0.0, 0.0, 1.740484009294498E9, 0.0, 2025-02-25 11:46:49.294
70.0, -161.63286623498425, -319.4173754155636, 16.872558650095016, -262.66813348792493, -0.03200000151991844, -0.01600000075995922, 0.9760000463575125, 0.0, 0.0, 0.0, 0.0, 0.0, 1.740484009295208E9, 0.0, 2025-02-25 11:46:49.295
70.0, -77.86097717750818, -183.56737947510555, 13.529088089708239, -202.038745356258, -0.03200000151991844, -0.01600000075995922, 0.9760000463575125, 0.0, 0.0, 0.0, 0.0, 0.0, 1.7404840092953348E9, 0.0, 2025-02-25 11:46:49.295
71.0, -195.3499342855066, -247.83382031368092, 13.439330490771681, -303.99589794827625, -0.03200000151991844, -0.01600000075995922, 0.9760000463575125, 0.0, 0.0, 0.0, 0.0, 0.0, 1.740484009296222E9, 0.0, 2025-02-25 11:46:49.296
71.0, -301.8978140731342, -383.60901825502515, 11.07197381881997, -370.56798710953444, -0.03200000151991844, -0.01600000075995922, 0.9760000463575125, 0.0, 0.0, 0.0, 0.0, 0.0, 1.7404840092962778E9, 0.0, 2025-02-25 11:46:49.296
72.0, -161.6179066351615, -314.1216770783067, 11.991989207919687, -264.7961365627125, -0.03200000151991844, -0.01600000075995922, 0.9760000463575125, 0.0, 0.0, 0.0, 0.0, 0.0, 1.740484009323681E9, 0.0, 2025-02-25 11:46:49.323
72.0, -63.840092243626714, -181.0691263047047, 15.687010364141315, -192.65907626738772, -0.03200000151991844, -0.01600000075995922, 0.9760000463575125, 0.0, 0.0, 0.0, 0.0, 0.0, 1.7404840093237574E9, 0.0, 2025-02-25 11:46:49.323
73.0, -200.8737665200606, -253.35017274832353, 11.797514410223812, -310.765116868075, -0.03200000151991844, -0.01600000075995922, 0.9760000463575125, 0.0, 0.0, 0.0, 0.0, 0.0, 1.7404840093238742E9, 0.0, 2025-02-25 11:46:49.323
73.0, -305.30112303281203, -381.2154822833836, 11.05701421899721, -366.16238496173173, -0.03200000151991844, -0.01600000075995922, 0.9760000463575125, 0.0, 0.0, 0.0, 0.0, 0.0, 1.7404840093239148E9, 0.0, 2025-02-25 11:46:49.323
74.0, -157.32824138598517, -307.1766828605905, 11.07571371877566, -264.02945707179606, -0.03200000151991844, -0.01600000075995922, 0.9760000463575125, 0.0, 0.0, 0.0, 0.0, 0.0, 1.740484009353846E9, 0.0, 2025-02-25 11:46:49.353
74.0, -62.542346959002316, -181.86572499526665, 14.71089647570625, -198.5568984975107, -0.03200000151991844, -0.01600000075995922, 0.9760000463575125, 0.0, 0.0, 0.0, 0.0, 0.0, 1.740484009353929E9, 0.0, 2025-02-25 11:46:49.353
75.0, -192.3093956215307, -251.12493227468804, 7.365732962731272, -305.74243122758344, -0.03200000151991844, -0.01600000075995922, 0.9760000463575125, 0.0, 0.0, 0.0, 0.0, 0.0, 1.7404840093542829E9, 0.0, 2025-02-25 11:46:49.354
75.0, -299.7959902980365, -389.4918808853254, 10.193097329232842, -376.7650013361126, -0.03200000151991844, -0.01600000075995922, 0.9760000463575125, 0.0, 0.0, 0.0, 0.0, 0.0, 1.7404840093543465E9, 0.0, 2025-02-25 11:46:49.354
76.0, -155.8285415037535, -299.5547667508945, 14.815613674465567, -249.6794609418139, -0.03200000151991844, -0.01600000075995922, 0.9760000463575125, 0.0, 0.0, 0.0, 0.0, 0.0, 1.7404840093546443E9, 0.0, 2025-02-25 11:46:49.354
76.0, -55.6571911405772, -171.63335871649906, 13.824540186207741, -187.47183502884582, -0.03200000151991844, -0.01600000075995922, 0.9760000463575125, 0.0, 0.0, 0.0, 0.0, 0.0, 1.740484009354709E9, 0.0, 2025-02-25 11:46:49.354
77.0, -193.09851451218128, -245.07751404633746, 14.793174274731427, -303.55084985354915, -0.03200000151991844, -0.01600000075995922, 0.9760000463575125, 0.0, 0.0, 0.0, 0.0, 0.0, 1.7404840093551123E9, 0.0, 2025-02-25 11:46:49.355
77.0, -296.2730045397766, -378.3656785171479, 12.205163505394012, -374.3901648642495, -0.03200000151991844, -0.01600000075995922, 0.9760000463575125, 0.0, 0.0, 0.0, 0.0, 0.0, 1.7404840093551755E9, 0.0, 2025-02-25 11:46:49.355
78.0, -145.13242763048038, -312.1021311022341, 9.84154673339799, -266.27339704521, -0.03200000151991844, -0.01600000075995922, 0.9760000463575125, 0.0, 0.0, 0.0, 0.0, 0.0, 1.7404840093835585E9, 0.0, 2025-02-25 11:46:49.383
78.0, -44.40009227395058, -159.1346130645834, 10.27537512825802, -177.3666253485717, -0.03200000151991844, -0.01600000075995922, 0.9760000463575125, 0.0, 0.0, 0.0, 0.0, 0.0, 1.7404840093836496E9, 0.0, 2025-02-25 11:46:49.383
79.0, -197.95290465466678, -247.79268141416833, 10.828880321700126, -310.2677101739682, -0.03200000151991844, -0.01600000075995922, 0.9760000463575125, 0.0, 0.0, 0.0, 0.0, 0.0, 1.7404840093838885E9, 0.0, 2025-02-25 11:46:49.383
79.0, -302.03993027145043, -384.7048089420423, 13.024201595690101, -379.3642318053171, -0.03200000151991844, -0.01600000075995922, 0.9760000463575125, 0.0, 0.0, 0.0, 0.0, 0.0, 1.7404840093839839E9, 0.0, 2025-02-25 11:46:49.383
80.0, -138.38938801037148, -293.6232854211703, 12.167764505837113, -253.40814119763672, -0.03200000151991844, -0.01600000075995922, 0.9760000463575125, 0.0, 0.0, 0.0, 0.0, 0.0, 1.7404840094135525E9, 0.0, 2025-02-25 11:46:49.413
80.0, -41.194998011924326, -166.42367807822302, 18.102985735516995, -187.71866842592135, -0.03200000151991844, -0.01600000075995922, 0.9760000463575125, 0.0, 0.0, 0.0, 0.0, 0.0, 1.7404840094136415E9, 0.0, 2025-02-25 11:46:49.413
81.0, -188.76771036349237, -241.71160408621654, 10.439930726308376, -303.73036505142227, -0.03200000151991844, -0.01600000075995922, 0.9760000463575125, 0.0, 0.0, 0.0, 0.0, 0.0, 1.7404840094139485E9, 0.0, 2025-02-25 11:46:49.413
81.0, -302.2718040687032, -385.12367773707956, 14.27332818089053, -383.7810536529869, -0.03200000151991844, -0.01600000075995922, 0.9760000463575125, 0.0, 0.0, 0.0, 0.0, 0.0, 1.7404840094140046E9, 0.0, 2025-02-25 11:46:49.414
82.0, -131.66504789004102, -299.19947625510395, 7.511589061003178, -250.76029202900827, -0.03200000151991844, -0.01600000075995922, 0.9760000463575125, 0.0, 0.0, 0.0, 0.0, 0.0, 1.7404840094144497E9, 0.0, 2025-02-25 11:46:49.414
82.0, -25.846448593772948, -151.7557904520072, 10.944817220326513, -168.18143105739728, -0.03200000151991844, -0.01600000075995922, 0.9760000463575125, 0.0, 0.0, 0.0, 0.0, 0.0, 1.7404840094145017E9, 0.0, 2025-02-25 11:46:49.414
83.0, -183.4570524264127, -251.61111926892772, 11.161731417756528, -314.0150899295695, -0.03200000151991844, -0.01600000075995922, 0.9760000463575125, 0.0, 0.0, 0.0, 0.0, 0.0, 1.7404840094157388E9, 0.0, 2025-02-25 11:46:49.415
83.0, -285.3487567692064, -374.842692758888, 15.11480567092076, -368.00989553984255, -0.03200000151991844, -0.01600000075995922, 0.9760000463575125, 0.0, 0.0, 0.0, 0.0, 0.0, 1.7404840094159718E9, 0.0, 2025-02-25 11:46:49.415
84.0, -123.560684686061, -289.23638277314603, 7.234836464282125, -238.72155407164246, -0.03200000151991844, -0.01600000075995922, 0.9760000463575125, 0.0, 0.0, 0.0, 0.0, 0.0, 1.740484009444227E9, 0.0, 2025-02-25 11:46:49.444
84.0, -18.620961879380047, -137.8209232171066, 12.403378203045577, -167.06694087060168, -0.03200000151991844, -0.01600000075995922, 0.9760000463575125, 0.0, 0.0, 0.0, 0.0, 0.0, 1.7404840094443104E9, 0.0, 2025-02-25 11:46:49.444
85.0, -181.37018825113773, -239.14229281665757, 12.784847998525947, -299.4481796021573, -0.03200000151991844, -0.01600000075995922, 0.9760000463575125, 0.0, 0.0, 0.0, 0.0, 0.0, 1.740484009444428E9, 0.0, 2025-02-25 11:46:49.444
85.0, -292.39846818568185, -389.05057269055396, 13.192497093696147, -378.3619386171922, -0.03200000151991844, -0.01600000075995922, 0.9760000463575125, 0.0, 0.0, 0.0, 0.0, 0.0, 1.740484009444474E9, 0.0, 2025-02-25 11:46:49.444
86.0, -113.62003060383722, -269.6168676055968, 15.234482469502836, -225.64686382655054, -0.03200000151991844, -0.01600000075995922, 0.9760000463575125, 0.0, 0.0, 0.0, 0.0, 0.0, 1.7404840094733727E9, 0.0, 2025-02-25 11:46:49.473
86.0, -10.423101176507771, -141.39252767479047, 12.149065006058663, -161.16163884056732, -0.03200000151991844, -0.01600000075995922, 0.9760000463575125, 0.0, 0.0, 0.0, 0.0, 0.0, 1.740484009473451E9, 0.0, 2025-02-25 11:46:49.473
87.0, -175.94359341543168, -234.7628699685447, 13.020461695734411, -294.892981456127, -0.03200000151991844, -0.01600000075995922, 0.9760000463575125, 0.0, 0.0, 0.0, 0.0, 0.0, 1.7404840094737763E9, 0.0, 2025-02-25 11:46:49.473
87.0, -269.1400303612463, -366.4615769581869, 11.027095019351691, -360.9863634230569, -0.03200000151991844, -0.01600000075995922, 0.9760000463575125, 0.0, 0.0, 0.0, 0.0, 0.0, 1.740484009473826E9, 0.0, 2025-02-25 11:46:49.473
88.0, -115.86771047720686, -291.9104112414643, 9.688210835214704, -227.30363950692117, -0.03200000151991844, -0.01600000075995922, 0.9760000463575125, 0.0, 0.0, 0.0, 0.0, 0.0, 1.740484009474726E9, 0.0, 2025-02-25 11:46:49.474
88.0, 39.88977292738855, -91.3190071680583, 12.134105406235904, -96.78300100332126, -0.03200000151991844, -0.01600000075995922, 0.9760000463575125, 0.0, 0.0, 0.0, 0.0, 0.0, 1.740484009474789E9, 0.0, 2025-02-25 11:46:49.474
89.0, -168.46379350405186, -227.0923351594247, 7.3844324625097215, -281.20120771834627, -0.03200000151991844, -0.01600000075995922, 0.9760000463575125, 0.0, 0.0, 0.0, 0.0, 0.0, 1.7404840094751863E9, 0.0, 2025-02-25 11:46:49.475
89.0, -307.85547470254824, -399.35773696843535, 6.744909570086747, -390.8494645692408, -0.03200000151991844, -0.01600000075995922, 0.9760000463575125, 0.0, 0.0, 0.0, 0.0, 0.0, 1.740484009475273E9, 0.0, 2025-02-25 11:46:49.475
90.0, -118.52677934570238, -286.30430120788515, 14.789434374775738, -227.34851830638945, -0.03200000151991844, -0.01600000075995922, 0.9920000471174717, 0.0, 0.0, 0.0, 0.0, 0.0, 1.7404840095037544E9, 0.0, 2025-02-25 11:46:49.503
90.0, 2.9993997644633055, -130.6328355022706, 14.800654074642807, -143.92817984474823, -0.03200000151991844, -0.01600000075995922, 0.9920000471174717, 0.0, 0.0, 0.0, 0.0, 0.0, 1.7404840095038388E9, 0.0, 2025-02-25 11:46:49.503
91.0, -186.25449759326875, -249.18018429772928, 10.357652927283198, -312.9828775417991, -0.03200000151991844, -0.01600000075995922, 0.9920000471174717, 0.0, 0.0, 0.0, 0.0, 0.0, 1.740484009504043E9, 0.0, 2025-02-25 11:46:49.504
91.0, -286.8671561512165, -387.27786011155695, 11.48710271390155, -382.72640186548233, -0.03200000151991844, -0.01600000075995922, 0.9920000471174717, 0.0, 0.0, 0.0, 0.0, 0.0, 1.7404840095040865E9, 0.0, 2025-02-25 11:46:49.504
92.0, -111.12925723334774, -270.10305459983647, 10.133258929941803, -224.68570953793824, -0.03200000151991844, -0.01600000075995922, 0.9920000471174717, 0.0, 0.0, 0.0, 0.0, 0.0, 1.7404840095336213E9, 0.0, 2025-02-25 11:46:49.533
92.0, -7.315244313329458, -135.03095785016194, 10.720423222985119, -157.40677928505465, -0.03200000151991844, -0.01600000075995922, 0.9920000471174717, 0.0, 0.0, 0.0, 0.0, 0.0, 1.7404840095337763E9, 0.0, 2025-02-25 11:46:49.533
93.0, -160.08267770335078, -230.3161289212294, 11.386125415097922, -300.9441395844333, -0.03200000151991844, -0.01600000075995922, 0.9920000471174717, 0.0, 0.0, 0.0, 0.0, 0.0, 1.7404840095339649E9, 0.0, 2025-02-25 11:46:49.533
93.0, -281.216167318169, -373.7020232724026, 12.885825297329575, -379.86163849942386, -0.03200000151991844, -0.01600000075995922, 0.9920000471174717, 0.0, 0.0, 0.0, 0.0, 0.0, 1.7404840095340023E9, 0.0, 2025-02-25 11:46:49.534
94.0, -114.7008616910316, -280.9487644713372, 10.439930726308376, -237.0049399919808, -0.03200000151991844, -0.01600000075995922, 0.9920000471174717, 0.0, 0.0, 0.0, 0.0, 0.0, 1.7404840095345252E9, 0.0, 2025-02-25 11:46:49.534
94.0, 32.72786451224238, -106.97048848262057, 12.137845306191593, -136.26138493558392, -0.03200000151991844, -0.01600000075995922, 0.9920000471174717, 0.0, 0.0, 0.0, 0.0, 0.0, 1.7404840095345745E9, 0.0, 2025-02-25 11:46:49.534
95.0, -155.00763346347958, -223.96951869642362, 11.184170817490667, -290.0124120139517, -0.03200000151991844, -0.01600000075995922, 0.9920000471174717, 0.0, 0.0, 0.0, 0.0, 0.0, 1.7404840095353527E9, 0.0, 2025-02-25 11:46:49.535
95.0, -291.28397799888626, -394.0732583310455, 13.50290879001841, -402.1140432357788, -0.03200000151991844, -0.01600000075995922, 0.9920000471174717, 0.0, 0.0, 0.0, 0.0, 0.0, 1.7404840095354228E9, 0.0, 2025-02-25 11:46:49.535
96.0, -98.0657866881229, -273.9027929548174, 11.662878011818975, -221.81720627192408, -0.03200000151991844, -0.01600000075995922, 0.9920000471174717, 0.0, 0.0, 0.0, 0.0, 0.0, 1.7404840095637543E9, 0.0, 2025-02-25 11:46:49.563
96.0, 28.471858362667263, -109.53979975217953, 11.49084261385724, -138.47914560930803, -0.03200000151991844, -0.01600000075995922, 0.9920000471174717, 0.0, 0.0, 0.0, 0.0, 0.0, 1.7404840095638535E9, 0.0, 2025-02-25 11:46:49.563
97.0, -171.73994586523622, -250.08524008700624, 10.26041552843526, -323.5406151167117, -0.03200000151991844, -0.01600000075995922, 0.9920000471174717, 0.0, 0.0, 0.0, 0.0, 0.0, 1.7404840095639417E9, 0.0, 2025-02-25 11:46:49.563
97.0, -282.31569790514186, -372.9241240816191, 9.101046542171389, -394.24903362896293, -0.03200000151991844, -0.01600000075995922, 0.9920000471174717, 0.0, 0.0, 0.0, 0.0, 0.0, 1.7404840095639794E9, 0.0, 2025-02-25 11:46:49.563
98.0, -102.695782833267, -265.39826045557857, 12.126625606324524, -227.01940711028874, -0.03200000151991844, -0.01600000075995922, 0.9920000471174717, 0.0, 0.0, 0.0, 0.0, 0.0, 1.7404840095936763E9, 0.0, 2025-02-25 11:46:49.593
98.0, 1.5370988817885518, -132.12879548454657, 13.585186589043587, -153.85761422710493, -0.03200000151991844, -0.01600000075995922, 0.9920000471174717, 0.0, 0.0, 0.0, 0.0, 0.0, 1.7404840095937657E9, 0.0, 2025-02-25 11:46:49.593
99.0, -176.96084620337933, -238.12504002870992, 9.87894573295489, -300.7982834861614, -0.03200000151991844, -0.01600000075995922, 0.9920000471174717, 0.0, 0.0, 0.0, 0.0, 0.0, 1.7404840095938673E9, 0.0, 2025-02-25 11:46:49.593
99.0, -295.4090876500122, -383.3584449579939, 11.09441321855411, -396.2610998051241, -0.03200000151991844, -0.01600000075995922, 0.9920000471174717, 0.0, 0.0, 0.0, 0.0, 0.0, 1.740484009593932E9, 0.0, 2025-02-25 11:46:49.593
100.0, -120.83803751831874, -287.4000918949023, 13.368272391613573, -248.69586725346744, -0.03200000151991844, -0.01600000075995922, 0.9920000471174717, 0.0, 0.0, 0.0, 0.0, 0.0, 1.740484009594777E9, 0.0, 2025-02-25 11:46:49.594
100.0, 22.028010739013553, -119.68614833196625, 12.66143129998818, -140.09104249021038, -0.03200000151991844, -0.01600000075995922, 0.9920000471174717, 0.0, 0.0, 0.0, 0.0, 0.0, 1.7404840095948348E9, 0.0, 2025-02-25 11:46:49.594
0.0, -166.47603667760268, -236.76558639481664, 9.359099639113992, -312.39010339882225, -0.03200000151991844, -0.01600000075995922, 0.9920000471174717, 0.0, 0.0, 0.0, 0.0, 0.0, 1.740484009595454E9, 0.0, 2025-02-25 11:46:49.595
1.0, -322.39807568024844, -416.8548589111306, 9.527395137120038, -427.7828465816565, -0.03200000151991844, -0.01600000075995922, 0.9920000471174717, 0.0, 0.0, 0.0, 0.0, 0.0, 1.7404840096234753E9, 0.0, 2025-02-25 11:46:49.623
1.0, -121.3934126617387, -268.178876072634, 9.007549043279141, -237.66877223411575, -0.03200000151991844, -0.01600000075995922, 0.9920000471174717, 0.0, 0.0, 0.0, 0.0, 0.0, 1.7404840096236415E9, 0.0, 2025-02-25 11:46:49.623
2.0, -8.577460548374802, -124.73688322212547, 15.537414365913719, -156.09594435058534, -0.03200000151991844, -0.01600000075995922, 0.9920000471174717, 0.0, 0.0, 0.0, 0.0, 0.0, 1.7404840096239655E9, 0.0, 2025-02-25 11:46:49.623
2.0, -225.77215047506616, -275.03972254134715, 11.543201213236898, -352.41451272461563, -0.03200000151991844, -0.01600000075995922, 0.9920000471174717, 0.0, 0.0, 0.0, 0.0, 0.0, 1.740484009624051E9, 0.0, 2025-02-25 11:46:49.624
3.0, -329.0476178014651, -410.6316653848626, 7.631265859585255, -419.9552359743975, -0.03200000151991844, -0.01600000075995922, 0.9920000471174717, 0.0, 0.0, 0.0, 0.0, 0.0, 1.7404840096244807E9, 0.0, 2025-02-25 11:46:49.624
3.0, -128.09157348237932, -282.555051502306, 11.775075010489672, -239.45270451297984, -0.03200000151991844, -0.01600000075995922, 0.9920000471174717, 0.0, 0.0, 0.0, 0.0, 0.0, 1.740484009624546E9, 0.0, 2025-02-25 11:46:49.624
4.0, -31.364670978393406, -138.71662925649434, 11.378645615186542, -158.5904576210305, -0.03200000151991844, -0.01600000075995922, 0.9920000471174717, 0.0, 0.0, 0.0, 0.0, 0.0, 1.7404840096535196E9, 0.0, 2025-02-25 11:46:49.653
4.0, -234.78904926823452, -265.61891455296427, 11.831173509825021, -331.4187143733725, -0.03200000151991844, -0.01600000075995922, 0.9920000471174717, 0.0, 0.0, 0.0, 0.0, 0.0, 1.740484009653601E9, 0.0, 2025-02-25 11:46:49.653
5.0, -360.358060230501, -401.45021099364385, 8.424124650191516, -406.48785623395815, -0.03200000151991844, -0.01600000075995922, 0.9920000471174717, 0.0, 0.0, 0.0, 0.0, 0.0, 1.7404840096539147E9, 0.0, 2025-02-25 11:46:49.653
5.0, -162.95118096936494, -269.53645975654945, 12.014428607653826, -227.6084413533099, -0.03200000151991844, -0.01600000075995922, 0.9920000471174717, 0.0, 0.0, 0.0, 0.0, 0.0, 1.740484009654111E9, 0.0, 2025-02-25 11:46:49.654
6.0, -24.80488645611331, -106.74796443525702, 11.569380512926728, -127.53806828893721, -0.03200000151991844, -0.01600000075995922, 0.9920000471174717, 0.0, 0.0, 0.0, 0.0, 0.0, 1.740484009654491E9, 0.0, 2025-02-25 11:46:49.654
6.0, -237.26112313894555, -256.69177335873246, 12.26874180464074, -321.0143126966432, -0.03200000151991844, -0.01600000075995922, 0.9920000471174717, 0.0, 0.0, 0.0, 0.0, 0.0, 1.7404840096545656E9, 0.0, 2025-02-25 11:46:49.654
7.0, -366.315720859915, -415.3551590288989, 11.86857250938192, -417.7636546003632, -0.03200000151991844, -0.01600000075995922, 0.9920000471174717, 0.0, 0.0, 0.0, 0.0, 0.0, 1.740484009683473E9, 0.0, 2025-02-25 11:46:49.683
7.0, -138.1070255637169, -266.5520195919089, 10.926117720548064, -222.48851831397042, -0.03200000151991844, -0.01600000075995922, 0.9920000471174717, 0.0, 0.0, 0.0, 0.0, 0.0, 1.7404840096835272E9, 0.0, 2025-02-25 11:46:49.683
8.0, -9.804147733841091, -132.0259482357651, 10.533428225200623, -141.75342802051455, -0.03200000151991844, -0.01600000075995922, 0.9920000471174717, 0.0, 0.0, 0.0, 0.0, 0.0, 1.7404840096839943E9, 0.0, 2025-02-25 11:46:49.683
8.0, -228.39756024396047, -281.2105574682355, 8.869172744918615, -352.93061891850084, -0.03200000151991844, -0.01600000075995922, 0.9920000471174717, 0.0, 0.0, 0.0, 0.0, 0.0, 1.7404840096840367E9, 0.0, 2025-02-25 11:46:49.684
9.0, -341.3855477552861, -416.5444472148083, 10.810180821921676, -410.0295414919965, -0.03200000151991844, -0.01600000075995922, 0.9920000471174717, 0.0, 0.0, 0.0, 0.0, 0.0, 1.7404840096844685E9, 0.0, 2025-02-25 11:46:49.684
9.0, -120.5743745714426, -264.9176833112724, 9.88642553286627, -210.24034595908597, -0.03200000151991844, -0.01600000075995922, 0.9920000471174717, 0.0, 0.0, 0.0, 0.0, 0.0, 1.7404840096845975E9, 0.0, 2025-02-25 11:46:49.684
10.0, -24.71138895722106, -129.77078856248409, 11.711496711242944, -139.04574045259506, -0.03200000151991844, -0.01600000075995922, 0.9920000471174717, 0.0, 0.0, 0.0, 0.0, 0.0, 1.7404840097140765E9, 0.0, 2025-02-25 11:46:49.714
10.0, -252.55357405776158, -276.2813693266362, 10.709203523118049, -338.83867588546127, -0.03200000151991844, -0.01600000075995922, 0.9920000471174717, 0.0, 0.0, 0.0, 0.0, 0.0, 1.740484009714131E9, 0.0, 2025-02-25 11:46:49.714
11.0, -380.0000147977844, -414.5847396380268, 9.284301640000194, -419.8392990757711, -0.03200000151991844, -0.01600000075995922, 0.9920000471174717, 0.0, 0.0, 0.0, 0.0, 0.0, 1.7404840097143142E9, 0.0, 2025-02-25 11:46:49.714
11.0, -154.89917636476457, -272.01227352721617, 11.733936110977083, -217.96697926754132, -0.03200000151991844, -0.01600000075995922, 0.9920000471174717, 0.0, 0.0, 0.0, 0.0, 0.0, 1.740484009714382E9, 0.0, 2025-02-25 11:46:49.714
12.0, -31.461908377241343, -110.7945361873135, 12.960623296443373, -129.1312656700611, -0.03200000151991844, -0.01600000075995922, 0.9920000471174717, 0.0, 0.0, 0.0, 0.0, 0.0, 1.7404840097146575E9, 0.0, 2025-02-25 11:46:49.714
12.0, -254.9583297292702, -267.7992762271315, 16.70052325213328, -338.2290721926838, -0.03200000151991844, -0.01600000075995922, 0.9920000471174717, 0.0, 0.0, 0.0, 0.0, 0.0, 1.7404840097146912E9, 0.0, 2025-02-25 11:46:49.714
13.0, -364.7262633787468, -399.3558670184575, 13.648764888290316, -407.5799070210196, -0.03200000151991844, -0.01600000075995922, 0.9920000471174717, 0.0, 0.0, 0.0, 0.0, 0.0, 1.7404840097435198E9, 0.0, 2025-02-25 11:46:49.743
13.0, -600.4016689364798, -223.99569799611345, 14.931550573091954, -175.30594047298655, -0.03200000151991844, -0.01600000075995922, 0.9920000471174717, 0.0, 0.0, 0.0, 0.0, 0.0, 1.7404840097436073E9, 0.0, 2025-02-25 11:46:49.743
14.0, -480.7117807045579, -84.79475169535726, 12.186464005615562, -89.73515953682363, -0.03200000151991844, -0.01600000075995922, 0.9920000471174717, 0.0, 0.0, 0.0, 0.0, 0.0, 1.7404840097439525E9, 0.0, 2025-02-25 11:46:49.743
14.0, -719.2799988780171, -249.47376644425094, 11.88353210920468, -306.290326571092, -0.03200000151991844, -0.01600000075995922, 0.9920000471174717, 0.0, 0.0, 0.0, 0.0, 0.0, 1.7404840097440152E9, 0.0, 2025-02-25 11:46:49.744
15.0, -841.6551352781244, -393.52162308758125, 12.523055001627654, -387.92299285391346, -0.03200000151991844, -0.01600000075995922, 0.9920000471174717, 0.0, 0.0, 0.0, 0.0, 0.0, 1.740484009744506E9, 0.0, 2025-02-25 11:46:49.744
15.0, -598.1726885628887, -224.25375109305605, 15.08488647127524, -160.0247092540376, -0.03200000151991844, -0.01600000075995922, 0.9920000471174717, 0.0, 0.0, 0.0, 0.0, 0.0, 1.7404840097445662E9, 0.0, 2025-02-25 11:46:49.744
16.0, -479.0325656244531, -81.2231472376734, 17.51582144247368, -95.03085787408054, -0.03200000151991844, -0.01600000075995922, 0.9920000471174717, 0.0, 0.0, 0.0, 0.0, 0.0, 1.7404840097735715E9, 0.0, 2025-02-25 11:46:49.773
16.0, -241.04590189410374, -239.38725626375526, 15.51497496617958, -307.5132738566026, -0.03200000151991844, -0.01600000075995922, 0.9920000471174717, 0.0, 0.0, 0.0, 0.0, 0.0, 1.740484009773664E9, 0.0, 2025-02-25 11:46:49.773
17.0, -355.6083872867748, -399.1015538214706, 12.489395902026445, -399.4979832167737, -0.03200000151991844, -0.01600000075995922, 0.9920000471174717, 0.0, 0.0, 0.0, 0.0, 0.0, 1.7404840097740128E9, 0.0, 2025-02-25 11:46:49.774
17.0, -118.34913409780711, -247.1381989219226, 12.197683705482632, -193.65388965560123, -0.03200000151991844, -0.01600000075995922, 0.9920000471174717, 0.0, 0.0, 0.0, 0.0, 0.0, 1.7404840097741148E9, 0.0, 2025-02-25 11:46:49.774
18.0, -0.21130434749647975, -104.43670626264066, 10.825140421744436, -117.6497728060931, -0.03200000151991844, -0.01600000075995922, 0.9920000471174717, 0.0, 0.0, 0.0, 0.0, 0.0, 1.740484009774872E9, 0.0, 2025-02-25 11:46:49.774
18.0, -239.19839131599292, -278.59262749925256, 14.217229681555182, -346.9766981890425, -0.03200000151991844, -0.01600000075995922, 0.9920000471174717, 0.0, 0.0, 0.0, 0.0, 0.0, 1.7404840097750463E9, 0.0, 2025-02-25 11:46:49.775
19.0, -359.49040344078094, -425.3369520106353, 7.642485559452325, -436.1602224824019, -0.03200000151991844, -0.01600000075995922, 0.9920000471174717, 0.0, 0.0, 0.0, 0.0, 0.0, 1.740484009803376E9, 0.0, 2025-02-25 11:46:49.803
19.0, -115.94063852634281, -257.1087722037919, 10.114559430163354, -215.83523629279807, -0.03200000151991844, -0.01600000075995922, 0.9920000471174717, 0.0, 0.0, 0.0, 0.0, 0.0, 1.7404840098034372E9, 0.0, 2025-02-25 11:46:49.803
20.0, 9.194544041063637, -113.06465546041727, 13.686163887847215, -125.27916871570051, -0.03200000151991844, -0.01600000075995922, 0.9920000471174717, 0.0, 0.0, 0.0, 0.0, 0.0, 1.740484009804338E9, 0.0, 2025-02-25 11:46:49.804
20.0, 249.28677144646645, -281.1993377683684, 16.939876849297434, -354.6883718976751, -0.03200000151991844, -0.01600000075995922, 0.9920000471174717, 0.0, 0.0, 0.0, 0.0, 0.0, 1.7404840098044388E9, 0.0, 2025-02-25 11:46:49.804
21.0, 134.1520813605748, -415.90492432238534, 8.540061548817903, -434.05839870730415, -0.03200000151991844, -0.01600000075995922, 0.9920000471174717, 0.0, 0.0, 0.0, 0.0, 0.0, 1.7404840098046372E9, 0.0, 2025-02-25 11:46:49.804
21.0, 376.9389066840522, -250.1338587864302, 12.844686397816986, -204.02463223272935, -0.03200000151991844, -0.01600000075995922, 0.9920000471174717, 0.0, 0.0, 0.0, 0.0, 0.0, 1.740484009804679E9, 0.0, 2025-02-25 11:46:49.804
22.0, 503.9889180287719, -91.34331651777029, 9.759268934372813, -108.9395458092913, -0.03200000151991844, -0.01600000075995922, 0.9920000471174717, 0.0, 0.0, 0.0, 0.0, 0.0, 1.7404840098336785E9, 0.0, 2025-02-25 11:46:49.833
22.0, 269.11946091149, -268.39766022004187, 13.039161195512861, -336.3740818146616, -0.03200000151991844, -0.01600000075995922, 0.9920000471174717, 0.0, 0.0, 0.0, 0.0, 0.0, 1.7404840098338263E9, 0.0, 2025-02-25 11:46:49.833
23.0, 137.8246631170623, -428.3700108746998, 11.195390517357737, -438.35180385643616, -0.03200000151991844, -0.01600000075995922, 0.9920000471174717, 0.0, 0.0, 0.0, 0.0, 0.0, 1.7404840098339465E9, 0.0, 2025-02-25 11:46:49.833
23.0, -89.61922263819724, -244.75588265014812, 8.64103884762153, -203.91991503397003, -0.03200000151991844, -0.01600000075995922, 0.9920000471174717, 0.0, 0.0, 0.0, 0.0, 0.0, 1.7404840098340104E9, 0.0, 2025-02-25 11:46:49.834
24.0, 54.23415920743719, -71.19273555651307, 9.897645232733339, -88.28407835401595, -0.03200000151991844, -0.01600000075995922, 0.9920000471174717, 0.0, 0.0, 0.0, 0.0, 0.0, 1.7404840098351057E9, 0.0, 2025-02-25 11:46:49.835
24.0, 281.89869906008244, -257.421053850092, 12.021908407565206, 155.54430910712108, -0.03200000151991844, -0.01600000075995922, 0.9920000471174717, 0.0, 0.0, 0.0, 0.0, 0.0, 1.740484009835178E9, 0.0, 2025-02-25 11:46:49.835
25.0, 164.03014210658148, -420.6358977663331, 11.834913409780711, 49.49383601360023, -0.03200000151991844, -0.01600000075995922, 0.9920000471174717, 0.0, 0.0, 0.0, 0.0, 0.0, 1.7404840098635926E9, 0.0, 2025-02-25 11:46:49.863
25.0, -69.89125037193298, -250.04784108744934, 13.319653692189604, 275.03224274143577, -0.03200000151991844, -0.01600000075995922, 0.9920000471174717, 0.0, 0.0, 0.0, 0.0, 0.0, 1.7404840098636765E9, 0.0, 2025-02-25 11:46:49.863
26.0, 68.29244314087555, -96.60535575542599, 9.175844541285187, 372.611842435319, -0.03200000151991844, -0.01600000075995922, 0.9920000471174717, 0.0, 0.0, 0.0, 0.0, 0.0, 1.7404840098638124E9, 0.0, 2025-02-25 11:46:49.863
26.0, 288.96337007638067, -287.1756978975609, 10.828880321700126, 131.24991899495944, -0.03200000151991844, -0.01600000075995922, 0.9920000471174717, 0.0, 0.0, 0.0, 0.0, 0.0, 1.7404840098638527E9, 0.0, 2025-02-25 11:46:49.863
27.0, 153.61826062994078, -441.66161531722173, 13.147618294227868, 30.061315843835473, -0.03200000151991844, -0.01600000075995922, 0.9920000471174717, 0.0, 0.0, 0.0, 0.0, 0.0, 1.7404840098644073E9, 0.0, 2025-02-25 11:46:49.864
27.0, -79.89922265335917, -259.6631238735281, 9.632112335879356, 271.14274678751826, -0.03200000151991844, -0.01600000075995922, 0.9920000471174717, 0.0, 0.0, 0.0, 0.0, 0.0, 1.7404840098644648E9, 0.0, 2025-02-25 11:46:49.864
28.0, 39.020246187690645, -119.62817988265306, 14.396744879428297, 354.0843780548312, -0.03200000151991844, -0.01600000075995922, 0.9920000471174717, 0.0, 0.0, 0.0, 0.0, 0.0, 1.7404840098937013E9, 0.0, 2025-02-25 11:46:49.893
28.0, 274.7704497445375, -298.57117306254804, 12.904524797108024, 118.75865314295515, -0.03200000151991844, -0.01600000075995922, 0.9920000471174717, 0.0, 0.0, 0.0, 0.0, 0.0, 1.7404840098937752E9, 0.0, 2025-02-25 11:46:49.893
29.0, 126.13373585557565, -454.87842176062986, 8.416644850280136, 16.317183506675065, -0.03200000151991844, -0.01600000075995922, 0.9920000471174717, 0.0, 0.0, 0.0, 0.0, 0.0, 1.7404840098939292E9, 0.0, 2025-02-25 11:46:49.893
29.0, -101.02591750305146, -259.61076527414843, 8.326887251343578, -222.46981881419197, -0.03200000151991844, -0.01600000075995922, 0.9920000471174717, 0.0, 0.0, 0.0, 0.0, 0.0, 1.7404840098939812E9, 0.0, 2025-02-25 11:46:49.893
30.0, 44.77595221949741, -99.04377052653581, 11.816213910002261, -123.86174663249403, -0.03200000151991844, -0.01600000075995922, 0.9920000471174717, 0.0, 0.0, 0.0, 0.0, 0.0, 1.7404840098945227E9, 0.0, 2025-02-25 11:46:49.894
30.0, 260.7271254109219, -295.8859248943627, 17.14183144690469, 111.0320198344998, -0.03200000151991844, -0.01600000075995922, 0.9920000471174717, 0.0, 0.0, 0.0, 0.0, 0.0, 1.7404840098945878E9, 0.0, 2025-02-25 11:46:49.894
31.0, 127.24448614241555, -446.28787156241015, 11.07945361873135, 26.5682492852211, -0.03200000151991844, -0.01600000075995922, 0.9920000471174717, 0.0, 0.0, 0.0, 0.0, 0.0, 1.7404840099234984E9, 0.0, 2025-02-25 11:46:49.923
31.0, -104.80695635825396, -264.94760251091793, 14.505201978143305, 264.28751016873866, -0.03200000151991844, -0.01600000075995922, 0.9920000471174717, 0.0, 0.0, 0.0, 0.0, 0.0, 1.7404840099236286E9, 0.0, 2025-02-25 11:46:49.923
32.0, 37.99551359983161, -98.85303562879562, 8.394205450545996, 380.2000994454138, -0.03200000151991844, -0.01600000075995922, 0.9920000471174717, 0.0, 0.0, 0.0, 0.0, 0.0, 1.740484009923838E9, 0.0, 2025-02-25 11:46:49.923
32.0, 264.88215426169336, -273.1697725635022, 9.44137743813917, 623.2019690163434, -0.03200000151991844, -0.01600000075995922, 0.9920000471174717, 0.0, 0.0, 0.0, 0.0, 0.0, 1.74048400992389E9, 0.0, 2025-02-25 11:46:49.923
33.0, 119.16256233816966, -442.2338200104423, 12.171504405792803, 523.2138737509958, -0.03200000151991844, -0.01600000075995922, 0.9920000471174717, 0.0, 0.0, 0.0, 0.0, 0.0, 1.740484009924548E9, 0.0, 2025-02-25 11:46:49.924
33.0, -77.9993534758687, -233.97001117793843, 10.66806462360546, 302.94311611074954, -0.03200000151991844, -0.01600000075995922, 0.9920000471174717, 0.0, 0.0, 0.0, 0.0, 0.0, 1.740484009924605E9, 0.0, 2025-02-25 11:46:49.924
34.0, 77.37292023329064, -65.97183521836996, 13.312173892278224, 419.8879177751951, -0.03200000151991844, -0.01600000075995922, 0.9920000471174717, 0.0, 0.0, 0.0, 0.0, 0.0, 1.740484009953611E9, 0.0, 2025-02-25 11:46:49.953
34.0, -132.62620217865333, -189.3473948566243, 15.4700961667113, 228.00113084865734, -0.03200000151991844, -0.01600000075995922, 0.9920000471174717, 0.0, 0.0, 0.0, 0.0, 0.0, 1.7404840099536953E9, 0.0, 2025-02-25 11:46:49.953
35.0, -308.8783373404294, -396.4574445527978, 9.908864932600409, 81.33908413629979, -0.03200000151991844, -0.01600000075995922, 0.9920000471174717, 0.0, 0.0, 0.0, 0.0, 0.0, 1.740484009953827E9, 0.0, 2025-02-25 11:46:49.953
35.0, -74.28189291991293, -236.9507114426233, 13.117699094582349, 304.8766443878412, -0.03200000151991844, -0.01600000075995922, 0.9920000471174717, 0.0, 0.0, 0.0, 0.0, 0.0, 1.7404840099539108E9, 0.0, 2025-02-25 11:46:49.953
36.0, 62.05055011482909, -71.66022305097431, 13.012981895823032, 398.6565057267435, -0.03200000151991844, -0.01600000075995922, 0.9920000471174717, 0.0, 0.0, 0.0, 0.0, 0.0, 1.74048400995468E9, 0.0, 2025-02-25 11:46:49.954
36.0, 306.024793674238, -237.5621850853786, 11.558160813059658, 163.82444760901853, -0.03200000151991844, -0.01600000075995922, 0.9920000471174717, 0.0, 0.0, 0.0, 0.0, 0.0, 1.740484009954764E9, 0.0, 2025-02-25 11:46:49.954
37.0, 139.975105591584, -431.2572136404924, 11.146771817933768, 44.53472867235541, -0.03200000151991844, -0.01600000075995922, 0.9920000471174717, 0.0, 0.0, 0.0, 0.0, 0.0, 1.740484009984234E9, 0.0, 2025-02-25 11:46:49.984
37.0, -99.06994982622564, -259.8052400718443, 15.810427062679082, 279.29946859087795, -0.03200000151991844, -0.01600000075995922, 0.9920000471174717, 0.0, 0.0, 0.0, 0.0, 0.0, 1.7404840099845016E9, 0.0, 2025-02-25 11:46:49.984
38.0, 67.6417005485855, -64.47213533613831, 10.481069625820965, 404.7562825544737, -0.03200000151991844, -0.01600000075995922, 0.9920000471174717, 0.0, 0.0, 0.0, 0.0, 0.0, 1.7404840099847832E9, 0.0, 2025-02-25 11:46:49.984
38.0, 272.30211577378213, -271.7224312806502, 12.68387069972232, 632.095451110974, -0.03200000151991844, -0.01600000075995922, 0.9920000471174717, 0.0, 0.0, 0.0, 0.0, 0.0, 1.7404840099848812E9, 0.0, 2025-02-25 11:46:49.984
39.0, 112.48310101730749, -455.166394057218, 8.831773745361716, 504.52933357236907, -0.03200000151991844, -0.01600000075995922, 0.9920000471174717, 0.0, 0.0, 0.0, 0.0, 0.0, 1.7404840099850264E9, 0.0, 2025-02-25 11:46:49.985
39.0, -113.91361275035888, -243.6900111627765, 14.65853787632659, 288.15555168595165, -0.03200000151991844, -0.01600000075995922, 0.9920000471174717, 0.0, 0.0, 0.0, 0.0, 0.0, 1.7404840099850874E9, 0.0, 2025-02-25 11:46:49.985
40.0, 43.874636330176145, -73.52643312886357, 14.479022678453475, 393.59268118673936, -0.03200000151991844, -0.01600000075995922, 0.9920000471174717, 0.0, 0.0, 0.0, 0.0, 0.0, 1.7404840100142877E9, 0.0, 2025-02-25 11:46:50.014
40.0, 241.7845321353525, -290.5416078576818, 13.936737184878439, 613.7175827287138, -0.03200000151991844, -0.01600000075995922, 0.9920000471174717, 0.0, 0.0, 0.0, 0.0, 0.0, 1.7404840100143673E9, 0.0, 2025-02-25 11:46:50.014
41.0, 87.6165062119253, -448.5991297350265, 9.44137743813917, 515.1057706470601, -0.03200000151991844, -0.01600000075995922, 0.9920000471174717, 0.0, 0.0, 0.0, 0.0, 0.0, 1.740484010014556E9, 0.0, 2025-02-25 11:46:50.014
41.0, -126.26650230400264, -257.0601535043679, 12.855906097684056, 289.0232084756717, -0.03200000151991844, -0.01600000075995922, 0.9920000471174717, 0.0, 0.0, 0.0, 0.0, 0.0, 1.7404840100146232E9, 0.0, 2025-02-25 11:46:50.014
42.0, 5.162931888829917, -98.00407833885401, 14.419184279162437, 384.5383833940141, -0.03200000151991844, -0.01600000075995922, 0.9920000471174717, 0.0, 0.0, 0.0, 0.0, 0.0, 1.740484010014694E9, 0.0, 2025-02-25 11:46:50.014
42.0, 239.5630315616727, -278.3831931017339, 14.086333183106035, 625.9545353837311, -0.03200000151991844, -0.01600000075995922, 0.9920000471174717, 0.0, 0.0, 0.0, 0.0, 0.0, 1.7404840100147483E9, 0.0, 2025-02-25 11:46:50.014
43.0, 77.15974593581632, -454.5680100643076, 13.383231991436332, 507.4501954377629, -0.03200000151991844, -0.01600000075995922, 0.9920000471174717, 0.0, 0.0, 0.0, 0.0, 0.0, 1.7404840100438452E9, 0.0, 2025-02-25 11:46:50.043
43.0, -158.13418982643634, -262.9953747340478, 11.0981531185098, 277.3995994133875, -0.03200000151991844, -0.01600000075995922, 0.9920000471174717, 0.0, 0.0, 0.0, 0.0, 0.0, 1.7404840100439115E9, 0.0, 2025-02-25 11:46:50.043
44.0, 22.508587883319706, -66.43558281287551, 14.082593283150345, 416.1442779195495, -0.03200000151991844, -0.01600000075995922, 0.9920000471174717, 0.0, 0.0, 0.0, 0.0, 0.0, 1.7404840100440347E9, 0.0, 2025-02-25 11:46:50.044
44.0, 225.9198765233159, -277.3173216143623, 13.166317794006318, 625.9507954837754, -0.03200000151991844, -0.01600000075995922, 0.9920000471174717, 0.0, 0.0, 0.0, 0.0, 0.0, 1.7404840100440786E9, 0.0, 2025-02-25 11:46:50.044
45.0, 62.55169670889154, -453.33010317897424, 10.148218529764563, 507.9363824320026, -0.03200000151991844, -0.01600000075995922, 0.9920000471174717, 0.0, 0.0, 0.0, 0.0, 0.0, 1.740484010044452E9, 0.0, 2025-02-25 11:46:50.044
45.0, -129.41549806669354, -242.78495537349954, 11.685317411553115, 293.2231161259115, -0.03200000151991844, -0.01600000075995922, 0.9920000471174717, 0.0, 0.0, 0.0, 0.0, 0.0, 1.7404840100445285E9, 0.0, 2025-02-25 11:46:50.044
46.0, 24.486994959879667, -67.93902259506285, 11.954590208362788, 414.1471713432111, -0.03200000151991844, -0.01600000075995922, 0.9920000471174717, 0.0, 0.0, 0.0, 0.0, 0.0, 1.740484010073632E9, 0.0, 2025-02-25 11:46:50.073
46.0, 225.86751792393625, -289.49069597013295, 11.45718351425603, 628.1947354571894, -0.03200000151991844, -0.01600000075995922, 0.9920000471174717, 0.0, 0.0, 0.0, 0.0, 0.0, 1.7404840100737112E9, 0.0, 2025-02-25 11:46:50.073
47.0, 88.52156200120226, -450.54761761194095, 12.998022296000272, 510.2925194040872, -0.03200000151991844, -0.01600000075995922, 0.9920000471174717, 0.0, 0.0, 0.0, 0.0, 0.0, 1.7404840100739E9, 0.0, 2025-02-25 11:46:50.073
47.0, -108.03822991997004, -235.615567158442, 7.500369361136109, 301.3760980293155, -0.03200000151991844, -0.01600000075995922, 0.9920000471174717, 0.0, 0.0, 0.0, 0.0, 0.0, 1.7404840100739875E9, 0.0, 2025-02-25 11:46:50.073
48.0, 50.89068864705041, -65.45198912452906, 9.991142731625587, 411.89575156988576, -0.03200000151991844, -0.01600000075995922, 0.9920000471174717, 0.0, 0.0, 0.0, 0.0, 0.0, 1.7404840100750244E9, 0.0, 2025-02-25 11:46:50.075
48.0, 272.06650207657367, -274.2805228503421, 13.51038858992979, 635.6109570693225, -0.03200000151991844, -0.01600000075995922, 0.9920000471174717, 0.0, 0.0, 0.0, 0.0, 0.0, 1.7404840100753503E9, 0.0, 2025-02-25 11:46:50.075
49.0, 103.45498252427205, -446.92365455487743, 10.387572126928717, 514.6046240529977, -0.03200000151991844, -0.01600000075995922, 0.9920000471174717, 0.0, 0.0, 0.0, 0.0, 0.0, 1.7404840101034544E9, 0.0, 2025-02-25 11:46:50.103
49.0, -86.92649467010051, -225.6487337765284, 11.741415910888463, 309.20744853653014, -0.03200000151991844, -0.01600000075995922, 0.9920000471174717, 0.0, 0.0, 0.0, 0.0, 0.0, 1.7404840101036074E9, 0.0, 2025-02-25 11:46:50.103
50.0, 70.7570372116752, -45.60060015972704, 9.88268563291058, 437.1587757705711, -0.03200000151991844, -0.01600000075995922, 0.9920000471174717, 0.0, 0.0, 0.0, 0.0, 0.0, 1.7404840101334913E9, 0.0, 2025-02-25 11:46:50.133
50.0, 257.03210425470024, -269.4672716073692, 13.562747189309448, 633.987840488553, -0.03200000151991844, -0.01600000075995922, 0.9920000471174717, 0.0, 0.0, 0.0, 0.0, 0.0, 1.7404840101335766E9, 0.0, 2025-02-25 11:46:50.133
51.0, 104.50215451186523, -436.45941447885707, 13.974136184435338, 519.0364055004902, -0.03200000151991844, -0.01600000075995922, 0.9920000471174717, 0.0, 0.0, 0.0, 0.0, 0.0, 1.7404840101338873E9, 0.0, 2025-02-25 11:46:50.133
51.0, -74.36417071893811, -216.5271177846007, 9.415198138449341, 322.3344973810017, -0.03200000151991844, -0.01600000075995922, 0.9920000471174717, 0.0, 0.0, 0.0, 0.0, 0.0, 1.7404840101339543E9, 0.0, 2025-02-25 11:46:50.133
52.0, 63.88310109311715, -54.0639937594533, 15.013828372117132, 426.57111899601296, -0.04800000227987766, -0.01600000075995922, 0.9920000471174717, 0.0, 0.0, 0.0, 0.0, 0.0, 1.7404840101353579E9, 0.0, 2025-02-25 11:46:50.135
52.0, 240.36711005214602, -287.97229658812284, 11.969549808185548, 616.1522575998679, -0.04800000227987766, -0.01600000075995922, 0.9920000471174717, 0.0, 0.0, 0.0, 0.0, 0.0, 1.740484010135459E9, 0.0, 2025-02-25 11:46:50.135
53.0, 89.93150428449735, -463.36799466004595, 10.350173127371818, 498.9868018380366, -0.04800000227987766, -0.01600000075995922, 0.9920000471174717, 0.0, 0.0, 0.0, 0.0, 0.0, 1.7404840101357653E9, 0.0, 2025-02-25 11:46:50.135
53.0, -97.95545963943005, -238.75334322126582, 13.757221987005323, 290.53412805777043, -0.04800000227987766, -0.01600000075995922, 0.9920000471174717, 0.0, 0.0, 0.0, 0.0, 0.0, 1.7404840101358297E9, 0.0, 2025-02-25 11:46:50.135
54.0, 70.51768361451104, -70.93468245957047, 8.065094254445285, 406.70851033134386, -0.04800000227987766, -0.01600000075995922, 0.9920000471174717, 0.0, 0.0, 0.0, 0.0, 0.0, 1.7404840101359391E9, 0.0, 2025-02-25 11:46:50.135
54.0, 246.53794497903436, -312.4836008977145, 9.979923031758517, 584.8081560712308, -0.04800000227987766, -0.01600000075995922, 0.9920000471174717, 0.0, 0.0, 0.0, 0.0, 0.0, 1.7404840101359963E9, 0.0, 2025-02-25 11:46:50.135
55.0, 95.48525571869686, -488.37296576378867, 13.600146188866347, 474.2137045315467, -0.04800000227987766, -0.01600000075995922, 0.9920000471174717, 0.0, 0.0, 0.0, 0.0, 0.0, 1.7404840101648507E9, 0.0, 2025-02-25 11:46:50.164
55.0, -61.49143507145345, -267.83480527671054, 11.184170817490667, 305.12347778491676, -0.04800000227987766, -0.01600000075995922, 0.9920000471174717, 0.0, 0.0, 0.0, 0.0, 0.0, 1.74048401016512E9, 0.0, 2025-02-25 11:46:50.165
56.0, 95.20476322202012, -125.18941111676395, 14.27706808084622, 425.13125751307234, -0.04800000227987766, -0.01600000075995922, 0.9920000471174717, 0.0, 0.0, 0.0, 0.0, 0.0, 1.740484010165234E9, 0.0, 2025-02-25 11:46:50.165
56.0, 255.74557866994292, 106.64137728651986, 14.25836858106777, 622.4502491252497, -0.04800000227987766, -0.01600000075995922, 0.9920000471174717, 0.0, 0.0, 0.0, 0.0, 0.0, 1.740484010165321E9, 0.0, 2025-02-25 11:46:50.165
57.0, 106.91812988324091, -83.52692561037838, 10.555867624934763, 517.5292258183472, -0.04800000227987766, -0.01600000075995922, 0.9920000471174717, 0.0, 0.0, 0.0, 0.0, 0.0, 1.740484010165415E9, 0.0, 2025-02-25 11:46:50.165
57.0, -62.538607059046626, 136.12487858720124, 11.262708716560155, 335.9028544202447, -0.04800000227987766, -0.01600000075995922, 0.9920000471174717, 0.0, 0.0, 0.0, 0.0, 0.0, 1.740484010165506E9, 0.0, 2025-02-25 11:46:50.165
58.0, 96.18087711045519, 303.25913765700534, 12.171504405792803, 457.9376599243842, -0.04800000227987766, -0.01600000075995922, 0.9920000471174717, 0.0, 0.0, 0.0, 0.0, 0.0, 1.7404840101935322E9, 0.0, 2025-02-25 11:46:50.193
58.0, 267.6085413293913, 543.2242084639147, 14.890411673579365, 631.9121960131451, -0.04800000227987766, -0.01600000075995922, 0.9920000471174717, 0.0, 0.0, 0.0, 0.0, 0.0, 1.740484010193784E9, 0.0, 2025-02-25 11:46:50.193
59.0, 114.3680105949752, 377.29793707979843, 12.033128107432276, 502.90247709164396, -0.04800000227987766, -0.01600000075995922, 0.9920000471174717, 0.0, 0.0, 0.0, 0.0, 0.0, 1.740484010194127E9, 0.0, 2025-02-25 11:46:50.194
59.0, -67.08632540516555, 139.5094880471006, 11.591819912660867, 324.369002956897, -0.04800000227987766, -0.01600000075995922, 0.9920000471174717, 0.0, 0.0, 0.0, 0.0, 0.0, 1.7404840101942434E9, 0.0, 2025-02-25 11:46:50.194
60.0, 69.80710262292996, 300.2672176924534, 10.63440552400425, 435.79745218669996, -0.04800000227987766, -0.01600000075995922, 0.9920000471174717, 0.0, 0.0, 0.0, 0.0, 0.0, 1.7404840101946795E9, 0.0, 2025-02-25 11:46:50.194
60.0, 242.73820662405342, 69.65002682479098, 12.926964196842164, 618.6654703700915, -0.04800000227987766, -0.01600000075995922, 0.9920000471174717, 0.0, 0.0, 0.0, 0.0, 0.0, 1.740484010194776E9, 0.0, 2025-02-25 11:46:50.194
61.0, 86.13924572942778, -105.55493634939194, 9.665771435480565, 492.26994151761755, -0.04800000227987766, -0.01600000075995922, 0.9920000471174717, 0.0, 0.0, 0.0, 0.0, 0.0, 1.740484010223338E9, 0.0, 2025-02-25 11:46:50.223
61.0, -82.68170822039247, -350.0041472031735, 12.956883396487683, 307.7414077538997, -0.04800000227987766, -0.01600000075995922, 0.9920000471174717, 0.0, 0.0, 0.0, 0.0, 0.0, 1.7404840102234013E9, 0.0, 2025-02-25 11:46:50.223
62.0, 87.39959201449528, -173.65103474259377, 14.957729872781783, 433.09350451873615, -0.03200000151991844, -0.01600000075995922, 0.9920000471174717, 0.0, 0.0, 0.0, 0.0, 0.0, 1.740484010223838E9, 0.0, 2025-02-25 11:46:50.223
62.0, 250.90614812728018, 68.29618304083124, 12.096706406679004, 599.5957204960287, -0.03200000151991844, -0.01600000075995922, 0.9920000471174717, 0.0, 0.0, 0.0, 0.0, 0.0, 1.7404840102240193E9, 0.0, 2025-02-25 11:46:50.224
63.0, 97.46366279525682, -100.61078860796988, 7.515328960958868, 477.5048164925538, -0.03200000151991844, -0.01600000075995922, 0.9920000471174717, 0.0, 0.0, 0.0, 0.0, 0.0, 1.740484010224451E9, 0.0, 2025-02-25 11:46:50.224
63.0, -85.20614069048315, -341.5931122028269, 14.093812983017415, 304.12118459679186, -0.03200000151991844, -0.01600000075995922, 0.9920000471174717, 0.0, 0.0, 0.0, 0.0, 0.0, 1.7404840102245216E9, 0.0, 2025-02-25 11:46:50.224
64.0, 88.51782210124657, -165.67756803706288, 10.312774127814919, 429.4545818618499, -0.03200000151991844, -0.01600000075995922, 0.9920000471174717, 0.0, 0.0, 0.0, 0.0, 0.0, 1.740484010253621E9, 0.0, 2025-02-25 11:46:50.253
64.0, 259.6051554242149, -403.9727735137567, 11.88353210920468, 606.1966439178213, -0.03200000151991844, -0.01600000075995922, 0.9920000471174717, 0.0, 0.0, 0.0, 0.0, 0.0, 1.740484010253703E9, 0.0, 2025-02-25 11:46:50.253
65.0, 80.37979979766533, -588.7593603744172, 12.078006906900555, 468.92922589415684, -0.03200000151991844, -0.01600000075995922, 0.9920000471174717, 0.0, 0.0, 0.0, 0.0, 0.0, 1.740484010253863E9, 0.0, 2025-02-25 11:46:50.253
65.0, -62.964955653995275, -823.484831343405, 10.29781452799216, 315.02673286758363, -0.03200000151991844, -0.01600000075995922, 0.9920000471174717, 0.0, 0.0, 0.0, 0.0, 0.0, 1.7404840102539194E9, 0.0, 2025-02-25 11:46:50.253
66.0, 103.05855312896892, -639.6369593716227, 13.360792591702193, 439.9375214376487, -0.03200000151991844, -0.01600000075995922, 0.9920000471174717, 0.0, 0.0, 0.0, 0.0, 0.0, 1.7404840102545578E9, 0.0, 2025-02-25 11:46:50.254
66.0, 283.544255040586, -870.8787135318853, 9.912604832556099, 627.2597604682669, -0.03200000151991844, -0.01600000075995922, 0.9920000471174717, 0.0, 0.0, 0.0, 0.0, 0.0, 1.74048401025463E9, 0.0, 2025-02-25 11:46:50.254
67.0, 134.16704096039757, -1021.905223492533, 11.958330108318478, 517.3571904203855, -0.03200000151991844, -0.01600000075995922, 0.9920000471174717, 0.0, 0.0, 0.0, 0.0, 0.0, 1.7404840102834122E9, 0.0, 2025-02-25 11:46:50.283
67.0, 1.6792150801047683, -1241.5850769397803, 10.63814542395994, 378.111365320161, -0.03200000151991844, -0.01600000075995922, 0.9920000471174717, 0.0, 0.0, 0.0, 0.0, 0.0, 1.7404840102836657E9, 0.0, 2025-02-25 11:46:50.283
68.0, 175.73976886784658, -1066.3501945659518, 13.645024988334626, 503.20166908809915, -0.03200000151991844, -0.01600000075995922, 0.9920000471174717, 0.0, 0.0, 0.0, 0.0, 0.0, 1.7404840102845218E9, 0.0, 2025-02-25 11:46:50.284
68.0, 297.8418925711885, -839.6842080014758, 12.998022296000272, 653.3119035596028, -0.03200000151991844, -0.01600000075995922, 0.9920000471174717, 0.0, 0.0, 0.0, 0.0, 0.0, 1.7404840102846253E9, 0.0, 2025-02-25 11:46:50.284
69.0, 83.83172745676711, -1054.8874012017623, 16.004901860374957, 489.00874875625595, -0.03200000151991844, -0.01600000075995922, 0.9920000471174717, 0.0, 0.0, 0.0, 0.0, 0.0, 1.7404840102848408E9, 0.0, 2025-02-25 11:46:50.284
69.0, -87.33040386531502, -815.6347813364118, 11.404824914876372, 310.8193454174325, -0.03200000151991844, -0.01600000075995922, 0.9920000471174717, 0.0, 0.0, 0.0, 0.0, 0.0, 1.7404840102848952E9, 0.0, 2025-02-25 11:46:50.284
70.0, 103.66815682174638, -612.1935734967701, 12.64273180020973, 463.1211612629704, -0.03200000151991844, -0.01600000075995922, 0.9920000471174717, 0.0, 0.0, 0.0, 0.0, 0.0, 1.7404840103136864E9, 0.0, 2025-02-25 11:46:50.313
70.0, 267.4701650310308, -844.807870940771, 11.819953809957951, 638.8235311312601, -0.03200000151991844, -0.01600000075995922, 0.9920000471174717, 0.0, 0.0, 0.0, 0.0, 0.0, 1.7404840103137646E9, 0.0, 2025-02-25 11:46:50.313
71.0, 71.56111570214853, -1029.9871472967789, 8.394205450545996, 492.7037699124776, -0.03200000151991844, -0.01600000075995922, 0.9920000471174717, 0.0, 0.0, 0.0, 0.0, 0.0, 1.7404840103139017E9, 0.0, 2025-02-25 11:46:50.313
71.0, -85.67362818494439, -1252.9955117045902, 11.012135419528931, 342.36166164372116, -0.03200000151991844, -0.01600000075995922, 0.9920000471174717, 0.0, 0.0, 0.0, 0.0, 0.0, 1.7404840103140135E9, 0.0, 2025-02-25 11:46:50.314
72.0, 81.38583288574591, -1073.7738959779963, 15.384078467730433, 477.89002618798986, -0.03200000151991844, -0.01600000075995922, 0.9920000471174717, 0.0, 0.0, 0.0, 0.0, 0.0, 1.7404840103146243E9, 0.0, 2025-02-25 11:46:50.314
72.0, 250.69671372976154, -1307.981390803121, 7.567687560338527, 659.6734733842313, -0.03200000151991844, -0.01600000075995922, 0.9920000471174717, 0.0, 0.0, 0.0, 0.0, 0.0, 1.740484010314694E9, 0.0, 2025-02-25 11:46:50.314
73.0, 73.8686339748092, -1507.3722869907506, 8.102493254002184, 511.94555518450215, -0.03200000151991844, -0.01600000075995922, 0.9920000471174717, 0.0, 0.0, 0.0, 0.0, 0.0, 1.7404840103434887E9, 0.0, 2025-02-25 11:46:50.343
73.0, -94.85508257616311, -1751.6719018463045, 11.524501713458449, 334.6499879350886, -0.03200000151991844, -0.01600000075995922, 0.9920000471174717, 0.0, 0.0, 0.0, 0.0, 0.0, 1.7404840103436334E9, 0.0, 2025-02-25 11:46:50.343
74.0, 87.47439001360908, -1545.8857767344452, 10.036021531093866, 492.0268480204977, -0.03200000151991844, -0.01600000075995922, 0.9920000471174717, 0.0, 0.0, 0.0, 0.0, 0.0, 1.7404840103439276E9, 0.0, 2025-02-25 11:46:50.343
74.0, 258.91701383236796, -1785.688161893282, 13.940477084834129, 665.732111312449, -0.03200000151991844, -0.01600000075995922, 0.9920000471174717, 0.0, 0.0, 0.0, 0.0, 0.0, 1.740484010344016E9, 0.0, 2025-02-25 11:46:50.344
75.0, 53.546017615590245, -2000.102236202918, 12.459476702380925, 502.34523199824616, -0.03200000151991844, -0.01600000075995922, 0.9920000471174717, 0.0, 0.0, 0.0, 0.0, 0.0, 1.7404840103445427E9, 0.0, 2025-02-25 11:46:50.344
75.0, -97.88066164031625, -2219.568915352691, 10.27163522830233, 346.7672637915239, -0.03200000151991844, -0.01600000075995922, 0.9920000471174717, 0.0, 0.0, 0.0, 0.0, 0.0, 1.7404840103446765E9, 0.0, 2025-02-25 11:46:50.344
76.0, 120.67722182022408, -2007.8625286109746, 12.582893400918692, 504.9631619672291, -0.03200000151991844, -0.01600000075995922, 0.9920000471174717, 0.0, 0.0, 0.0, 0.0, 0.0, 1.7404840103735323E9, 0.0, 2025-02-25 11:46:50.373
76.0, 242.21462063025683, -1788.0330791654997, 16.599545953329653, 649.0783368097618, -0.03200000151991844, -0.01600000075995922, 0.9920000471174717, 0.0, 0.0, 0.0, 0.0, 0.0, 1.7404840103735924E9, 0.0, 2025-02-25 11:46:50.373
77.0, 53.549757515545934, -1961.2259761635214, 8.899091944564134, 518.135089611169, -0.03200000151991844, -0.01600000075995922, 0.9920000471174717, 0.0, 0.0, 0.0, 0.0, 0.0, 1.7404840103738387E9, 0.0, 2025-02-25 11:46:50.373
77.0, -78.20130807347596, -2197.4810662143864, 11.629218912217766, 355.9187989830971, -0.03200000151991844, -0.01600000075995922, 0.9920000471174717, 0.0, 0.0, 0.0, 0.0, 0.0, 1.7404840103738863E9, 0.0, 2025-02-25 11:46:50.373
78.0, 104.98834150610492, -2014.164260036312, 13.128918794449419, 489.6220923489891, -0.03200000151991844, -0.01600000075995922, 0.9920000471174717, 0.0, 0.0, 0.0, 0.0, 0.0, 1.7404840103746336E9, 0.0, 2025-02-25 11:46:50.374
78.0, 273.4914039596915, -1776.0130407079123, 12.089226606767625, 658.6450008964166, -0.03200000151991844, -0.01600000075995922, 0.9920000471174717, 0.0, 0.0, 0.0, 0.0, 0.0, 1.7404840103746707E9, 0.0, 2025-02-25 11:46:50.374
79.0, 90.75428227474913, -1967.078919594176, 16.423770655412227, 505.8420384568162, -0.03200000151991844, -0.01600000075995922, 0.9920000471174717, 0.0, 0.0, 0.0, 0.0, 0.0, 1.7404840104036417E9, 0.0, 2025-02-25 11:46:50.403
79.0, -87.80911105964333, -1736.035380131565, 10.525948425289243, 335.5326043246314, -0.03200000151991844, -0.01600000075995922, 0.9920000471174717, 0.0, 0.0, 0.0, 0.0, 0.0, 1.7404840104037278E9, 0.0, 2025-02-25 11:46:50.403
80.0, 122.71920719603077, -1525.095672880765, 14.953989972826093, 495.82658637547866, -0.03200000151991844, -0.01600000075995922, 1.008000047877431, 0.0, 0.0, 0.0, 0.0, 0.0, 1.740484010403844E9, 0.0, 2025-02-25 11:46:50.403
80.0, 275.2042781393975, -1290.6245151087642, 10.301554427947849, 645.3421767540276, -0.03200000151991844, -0.01600000075995922, 1.008000047877431, 0.0, 0.0, 0.0, 0.0, 0.0, 1.7404840104039254E9, 0.0, 2025-02-25 11:46:50.403
81.0, 43.99057322880253, -1513.4907633182593, 12.485656002070755, 474.4006995293312, -0.03200000151991844, -0.01600000075995922, 1.008000047877431, 0.0, 0.0, 0.0, 0.0, 0.0, 1.7404840104045572E9, 0.0, 2025-02-25 11:46:50.404
81.0, -89.32751044165343, -1722.141651796177, 8.573720648419112, 341.4940048540011, -0.03200000151991844, -0.01600000075995922, 1.008000047877431, 0.0, 0.0, 0.0, 0.0, 0.0, 1.740484010404606E9, 0.0, 2025-02-25 11:46:50.404
82.0, 124.97436686931178, -1518.3114943611436, 12.68013079976663, 504.5854320717044, -0.04800000227987766, -0.01600000075995922, 1.008000047877431, 0.0, 0.0, 0.0, 0.0, 0.0, 1.740484010433671E9, 0.0, 2025-02-25 11:46:50.433
82.0, 253.6400149948895, -1306.3208752227947, 11.217829917091876, 636.8750432543457, -0.04800000227987766, -0.01600000075995922, 1.008000047877431, 0.0, 0.0, 0.0, 0.0, 0.0, 1.740484010433778E9, 0.0, 2025-02-25 11:46:50.433
83.0, 72.75040388805792, -1493.4673389554955, 7.994036155287176, 489.7978676469065, -0.04800000227987766, -0.01600000075995922, 1.008000047877431, 0.0, 0.0, 0.0, 0.0, 0.0, 1.7404840104341528E9, 0.0, 2025-02-25 11:46:50.434
83.0, -69.8837705720216, -1720.7765883123502, 13.630065388511866, 336.69571321085095, -0.04800000227987766, -0.01600000075995922, 1.008000047877431, 0.0, 0.0, 0.0, 0.0, 0.0, 1.74048401043428E9, 0.0, 2025-02-25 11:46:50.434
84.0, 123.98703328100964, -1533.2710941839032, 13.420630990993232, 485.16413160180673, -0.04800000227987766, -0.01600000075995922, 1.008000047877431, 0.0, 0.0, 0.0, 0.0, 0.0, 1.7404840104347007E9, 0.0, 2025-02-25 11:46:50.434
84.0, 282.9159518480301, -1292.3186897886917, 12.717529799323529, 650.3199835950509, -0.04800000227987766, -0.01600000075995922, 1.008000047877431, 0.0, 0.0, 0.0, 0.0, 0.0, 1.740484010434791E9, 0.0, 2025-02-25 11:46:50.434
85.0, 80.56679479544982, -1496.0890088244341, 14.957729872781783, 482.8304340294562, -0.04800000227987766, -0.01600000075995922, 1.008000047877431, 0.0, 0.0, 0.0, 0.0, 0.0, 1.740484010463804E9, 0.0, 2025-02-25 11:46:50.463
85.0, -68.03625999391079, -1253.3508022003807, 11.07197381881997, 304.0650860974565, -0.04800000227987766, -0.01600000075995922, 1.008000047877431, 0.0, 0.0, 0.0, 0.0, 0.0, 1.740484010463912E9, 0.0, 2025-02-25 11:46:50.463
86.0, 159.74795665731654, -1029.467301202938, 10.843839921522886, 480.1302262614481, -0.04800000227987766, -0.01600000075995922, 1.008000047877431, 0.0, 0.0, 0.0, 0.0, 0.0, 1.7404840104640162E9, 0.0, 2025-02-25 11:46:50.464
86.0, 294.5208614105359, -816.8521187719889, 15.140984970610589, 611.0585138602182, -0.04800000227987766, -0.01600000075995922, 1.008000047877431, 0.0, 0.0, 0.0, 0.0, 0.0, 1.7404840104641016E9, 0.0, 2025-02-25 11:46:50.464
87.0, 57.81324346503243, -1053.9075474133715, 10.24171602865681, 419.816859676037, -0.04800000227987766, -0.01600000075995922, 1.008000047877431, 0.0, 0.0, 0.0, 0.0, 0.0, 1.7404840104645677E9, 0.0, 2025-02-25 11:46:50.464
87.0, -70.31759896688163, -1258.653980337549, 12.119145806413144, 285.9602304119617, -0.04800000227987766, -0.01600000075995922, 1.008000047877431, 0.0, 0.0, 0.0, 0.0, 0.0, 1.740484010464618E9, 0.0, 2025-02-25 11:46:50.464
88.0, 139.13736800150946, -1058.8890941543505, 14.70715657575056, 447.51455874787644, -0.04800000227987766, -0.01600000075995922, 1.008000047877431, 0.0, 0.0, 0.0, 0.0, 0.0, 1.7404840104935448E9, 0.0, 2025-02-25 11:46:50.493
88.0, 255.42768717370927, -853.8546889335848, 15.683270464185625, 571.4155743299052, -0.04800000227987766, -0.01600000075995922, 1.008000047877431, 0.0, 0.0, 0.0, 0.0, 0.0, 1.7404840104937067E9, 0.0, 2025-02-25 11:46:50.493
89.0, 63.239838300738484, -1041.599536659196, 8.929011144209653, 430.16142295347527, -0.04800000227987766, -0.01600000075995922, 1.008000047877431, 0.0, 0.0, 0.0, 0.0, 0.0, 1.7404840104941556E9, 0.0, 2025-02-25 11:46:50.494
89.0, -66.5851788111031, -1252.7785975071602, 12.003208907786757, 295.48575559910387, -0.04800000227987766, -0.01600000075995922, 1.008000047877431, 0.0, 0.0, 0.0, 0.0, 0.0, 1.7404840104943194E9, 0.0, 2025-02-25 11:46:50.494
90.0, 123.37742958823219, -1046.9475935958326, 11.629218912217766, 456.2285256446339, -0.04800000227987766, -0.01600000075995922, 0.9920000471174717, 0.0, 0.0, 0.0, 0.0, 0.0, 1.740484010495628E9, 0.0, 2025-02-25 11:46:50.495
90.0, 251.2726583229378, -820.6294177272357, 15.649611364584416, 607.7374826995656, -0.04800000227987766, -0.01600000075995922, 0.9920000471174717, 0.0, 0.0, 0.0, 0.0, 0.0, 1.740484010495777E9, 0.0, 2025-02-25 11:46:50.495
91.0, 24.71512885717675, -1033.1286632595584, 12.025648307520896, 440.3788296324201, -0.04800000227987766, -0.01600000075995922, 0.9920000471174717, 0.0, 0.0, 0.0, 0.0, 0.0, 1.7404840105235193E9, 0.0, 2025-02-25 11:46:50.523
91.0, -115.46567123197019, -1254.3568352884613, 14.060153883416206, 295.52689449861646, -0.04800000227987766, -0.01600000075995922, 0.9920000471174717, 0.0, 0.0, 0.0, 0.0, 0.0, 1.740484010523601E9, 0.0, 2025-02-25 11:46:50.523
92.0, 126.55260465061292, -1023.9285093685612, 16.70426315208897, 484.8088411060162, -0.04800000227987766, -0.01600000075995922, 0.9920000471174717, 0.0, 0.0, 0.0, 0.0, 0.0, 1.7404840105237997E9, 0.0, 2025-02-25 11:46:50.523
92.0, 253.7484720936045, -818.0975054572336, 13.46176989050582, 618.7514880690724, -0.04800000227987766, -0.01600000075995922, 0.9920000471174717, 0.0, 0.0, 0.0, 0.0, 0.0, 1.74048401052386E9, 0.0, 2025-02-25 11:46:50.523
93.0, 45.28457861347124, -1026.0602523433045, 9.523655237164348, 442.0842240122147, -0.04800000227987766, -0.01600000075995922, 0.9920000471174717, 0.0, 0.0, 0.0, 0.0, 0.0, 1.7404840105246177E9, 0.0, 2025-02-25 11:46:50.524
93.0, -83.40724881179631, -1219.1120181060396, 10.047241230960935, 319.2266405178234, -0.04800000227987766, -0.01600000075995922, 0.9920000471174717, 0.0, 0.0, 0.0, 0.0, 0.0, 1.7404840105246952E9, 0.0, 2025-02-25 11:46:50.524
94.0, 139.7133125946857, -1010.9996752217412, 13.551527489442378, 497.4684024560265, -0.04800000227987766, -0.01600000075995922, 0.9920000471174717, 0.0, 0.0, 0.0, 0.0, 0.0, 1.7404840105534415E9, 0.0, 2025-02-25 11:46:50.553
94.0, 280.3092415789142, -794.4725574371405, 16.72296265186742, 631.504546917975, -0.04800000227987766, -0.01600000075995922, 0.9920000471174717, 0.0, 0.0, 0.0, 0.0, 0.0, 1.7404840105536168E9, 0.0, 2025-02-25 11:46:50.553
95.0, 56.90818767575547, -1020.095111913979, 11.617999212350696, 451.7107264981605, -0.04800000227987766, -0.01600000075995922, 0.9920000471174717, 0.0, 0.0, 0.0, 0.0, 0.0, 1.7404840105538175E9, 0.0, 2025-02-25 11:46:50.553
95.0, -87.47252006363124, -1247.5240380694158, 13.001762195955962, 306.53715996816754, -0.04800000227987766, -0.01600000075995922, 0.9920000471174717, 0.0, 0.0, 0.0, 0.0, 0.0, 1.7404840105538728E9, 0.0, 2025-02-25 11:46:50.553
96.0, 153.96981122577563, -1011.8000138122588, 15.758068463299423, 501.09236551309004, -0.04800000227987766, -0.01600000075995922, 0.9920000471174717, 0.0, 0.0, 0.0, 0.0, 0.0, 1.7404840105545816E9, 0.0, 2025-02-25 11:46:50.554
96.0, 273.36424736119807, -795.141999529209, 11.569380512926728, 637.4023691480979, -0.04800000227987766, -0.01600000075995922, 0.9920000471174717, 0.0, 0.0, 0.0, 0.0, 0.0, 1.7404840105546675E9, 0.0, 2025-02-25 11:46:50.554
97.0, 34.07983834622428, -1029.0484324079007, 15.372858767863363, 441.6429158174433, -0.04800000227987766, -0.01600000075995922, 0.9920000471174717, 0.0, 0.0, 0.0, 0.0, 0.0, 1.7404840105837119E9, 0.0, 2025-02-25 11:46:50.583
97.0, -79.97028075251728, -1205.1921104709618, 12.751188898924738, 326.1865943353623, -0.04800000227987766, -0.01600000075995922, 0.9920000471174717, 0.0, 0.0, 0.0, 0.0, 0.0, 1.7404840105837753E9, 0.0, 2025-02-25 11:46:50.583
98.0, 152.7580836401321, -987.2026918036863, 10.69798382325098, 510.58049170067534, -0.04800000227987766, -0.01600000075995922, 0.9920000471174717, 0.0, 0.0, 0.0, 0.0, 0.0, 1.7404840105839503E9, 0.0, 2025-02-25 11:46:50.583
98.0, 248.23585955891758, -801.522268853616, 11.423524414654821, 622.1959359282628, -0.04800000227987766, -0.01600000075995922, 0.9920000471174717, 0.0, 0.0, 0.0, 0.0, 0.0, 1.7404840105840683E9, 0.0, 2025-02-25 11:46:50.584
99.0, 46.77679869579151, -1014.2758275829256, 8.031435154844075, 455.5029850532301, -0.04800000227987766, -0.01600000075995922, 0.9920000471174717, 0.0, 0.0, 0.0, 0.0, 0.0, 1.7404840105845125E9, 0.0, 2025-02-25 11:46:50.584
99.0, -66.6263177106157, -1218.902583708521, 13.645024988334626, 333.76737154554576, -0.04800000227987766, -0.01600000075995922, 0.9920000471174717, 0.0, 0.0, 0.0, 0.0, 0.0, 1.740484010584604E9, 0.0, 2025-02-25 11:46:50.584
100.0, 140.1583606894128, -998.9983362639323, 11.617999212350696, 508.0747587303631, -0.04800000227987766, -0.01600000075995922, 0.9920000471174717, 0.0, 0.0, 0.0, 0.0, 0.0, 1.740484010614014E9, 0.0, 2025-02-25 11:46:50.614
100.0, 273.08001496456563, -784.4832846554928, 16.547187353949994, 642.4624537881464, -0.04800000227987766, -0.01600000075995922, 0.9920000471174717, 0.0, 0.0, 0.0, 0.0, 0.0, 1.740484010614142E9, 0.0, 2025-02-25 11:46:50.614
0.0, 41.398822559509426, -40.20018462371081, 10.821400521788746, -48.99642931949347, -0.04800000227987766, -0.01600000075995922, 0.9920000471174717, 0.0, 0.0, 0.0, 0.0, 0.0, 1.7404840106435556E9, 0.0, 2025-02-25 11:46:50.643
1.0, -99.09612912591547, -257.44910309975967, 11.576860312838107, -185.45602895272896, -0.04800000227987766, -0.01600000075995922, 0.9920000471174717, 0.0, 0.0, 0.0, 0.0, 0.0, 1.7404840106439168E9, 0.0, 2025-02-25 11:46:50.643
1.0, -335.02397793065757, -14.230319331400096, 13.390711791347712, 21.048156950622797, -0.04800000227987766, -0.01600000075995922, 0.9920000471174717, 0.0, 0.0, 0.0, 0.0, 0.0, 1.7404840106440449E9, 0.0, 2025-02-25 11:46:50.644
2.0, -218.65512085938826, 172.92736410116777, 12.014428607653826, 126.92285474622622, -0.04800000227987766, -0.01600000075995922, 0.9920000471174717, 0.0, 0.0, 0.0, 0.0, 0.0, 1.7404840106448264E9, 0.0, 2025-02-25 11:46:50.644
2.0, 21.016367800999433, -64.47961513604969, 9.916344732511789, -78.39578287117183, -0.04800000227987766, -0.01600000075995922, 0.9920000471174717, 0.0, 0.0, 0.0, 0.0, 0.0, 1.7404840106449704E9, 0.0, 2025-02-25 11:46:50.644
3.0, -79.31579826027155, -252.8752054539509, 16.397591355722398, -179.86487851897255, -0.04800000227987766, -0.01600000075995922, 0.9920000471174717, 0.0, 0.0, 0.0, 0.0, 0.0, 1.7404840106453745E9, 0.0, 2025-02-25 11:46:50.645
3.0, 144.40314713912085, -32.5333897145465, 14.639838376548141, 10.812050771899521, -0.04800000227987766, -0.01600000075995922, 0.9920000471174717, 0.0, 0.0, 0.0, 0.0, 0.0, 1.7404840106454537E9, 0.0, 2025-02-25 11:46:50.645
4.0, 236.80672529432923, 152.43645224394277, 13.342093091923743, 111.1479567331262, -0.04800000227987766, -0.01600000075995922, 0.9920000471174717, 0.0, 0.0, 0.0, 0.0, 0.0, 1.7404840106462867E9, 0.0, 2025-02-25 11:46:50.646
4.0, 12.538014601450413, -69.64067707490176, 10.555867624934763, -68.61968438699841, -0.04800000227987766, -0.01600000075995922, 0.9920000471174717, 0.0, 0.0, 0.0, 0.0, 0.0, 1.7404840106463904E9, 0.0, 2025-02-25 11:46:50.646
5.0, -108.30750271677971, -264.1360442205332, 10.784001522231847, -187.97672152286395, -0.04800000227987766, -0.01600000075995922, 0.9920000471174717, 0.0, 0.0, 0.0, 0.0, 0.0, 1.740484010647313E9, 0.0, 2025-02-25 11:46:50.647
5.0, 122.08716410351917, -43.304301586933434, 14.538861077744514, -6.679461320862174, -0.04800000227987766, -0.01600000075995922, 0.9920000471174717, 0.0, 0.0, 0.0, 0.0, 0.0, 1.7404840106473958E9, 0.0, 2025-02-25 11:46:50.647
6.0, 252.18145401217043, 178.04728714050725, 18.417137331794947, 131.94554038671777, -0.04800000227987766, -0.01600000075995922, 0.9920000471174717, 0.0, 0.0, 0.0, 0.0, 0.0, 1.7404840106736407E9, 0.0, 2025-02-25 11:46:50.673
6.0, 496.28846402000636, -60.66865708120167, 5.6939976825378835, -68.34293179027736, -0.04800000227987766, -0.01600000075995922, 0.9920000471174717, 0.0, 0.0, 0.0, 0.0, 0.0, 1.7404840106737325E9, 0.0, 2025-02-25 11:46:50.673
7.0, 371.7890644450672, -266.297706394922, 11.150511717889458, -192.00833367509767, -0.04800000227987766, -0.01600000075995922, 0.9920000471174717, 0.0, 0.0, 0.0, 0.0, 0.0, 1.7404840106739712E9, 0.0, 2025-02-25 11:46:50.673
7.0, 144.29095014045015, -491.6902570244856, 11.920931108761579, 28.789749858900905, -0.04800000227987766, -0.01600000075995922, 0.9920000471174717, 0.0, 0.0, 0.0, 0.0, 0.0, 1.740484010674023E9, 0.0, 2025-02-25 11:46:50.674
8.0, 242.46145402733237, -308.968094939366, 11.341246615629643, 131.34715639380738, -0.04800000227987766, -0.01600000075995922, 0.9920000471174717, 0.0, 0.0, 0.0, 0.0, 0.0, 1.740484010703706E9, 0.0, 2025-02-25 11:46:50.703
8.0, 7.470450161490589, -542.7810303191654, 8.786894945893437, -73.10382443387061, -0.04800000227987766, -0.01600000075995922, 0.9920000471174717, 0.0, 0.0, 0.0, 0.0, 0.0, 1.7404840107037933E9, 0.0, 2025-02-25 11:46:50.703
9.0, -88.84132344741374, -726.4830461926758, 5.3723662863485515, -168.4320043544285, -0.04800000227987766, -0.01600000075995922, 0.9920000471174717, 0.0, 0.0, 0.0, 0.0, 0.0, 1.7404840107039082E9, 0.0, 2025-02-25 11:46:50.703
9.0, 138.43052690988407, -489.019968456123, 10.376352427061647, 23.654867219738662, -0.04800000227987766, -0.01600000075995922, 0.9920000471174717, 0.0, 0.0, 0.0, 0.0, 0.0, 1.740484010703974E9, 0.0, 2025-02-25 11:46:50.703
10.0, 251.14924162440002, -300.2167290430516, 12.612812600564212, 143.55044994922355, -0.04800000227987766, -0.01600000075995922, 0.9920000471174717, 0.0, 0.0, 0.0, 0.0, 0.0, 1.7404840107045782E9, 0.0, 2025-02-25 11:46:50.704
10.0, 18.058106936048716, -525.8205840201117, 14.247148881200701, -44.62448627129197, -0.04800000227987766, -0.01600000075995922, 0.9920000471174717, 0.0, 0.0, 0.0, 0.0, 0.0, 1.7404840107047994E9, 0.0, 2025-02-25 11:46:50.704
11.0, -99.81045001745224, -737.1978595657274, 14.146171582397074, -185.19049605587497, -0.04800000227987766, -0.01600000075995922, 0.9920000471174717, 0.0, 0.0, 0.0, 0.0, 0.0, 1.7404840107053163E9, 0.0, 2025-02-25 11:46:50.705
11.0, -331.6318886708468, -971.5212912894785, 15.013828372117132, 40.50685642007738, -0.04800000227987766, -0.01600000075995922, 0.9920000471174717, 0.0, 0.0, 0.0, 0.0, 0.0, 1.7404840107053983E9, 0.0, 2025-02-25 11:46:50.705
12.0, -224.10041519487277, -779.367101516109, 12.799807598348707, 141.07463617855683, -0.03200000151991844, -0.01600000075995922, 0.9920000471174717, 0.0, 0.0, 0.0, 0.0, 0.0, 1.740484010734043E9, 0.0, 2025-02-25 11:46:50.734
12.0, -5.256429387722164, -546.7041853726842, 10.125779130030423, -83.5605847099796, -0.03200000151991844, -0.01600000075995922, 0.9920000471174717, 0.0, 0.0, 0.0, 0.0, 0.0, 1.7404840107341373E9, 0.0, 2025-02-25 11:46:50.734
13.0, -116.80081551615149, -734.5836694967002, 11.509542113635689, -183.46266227634624, -0.03200000151991844, -0.01600000075995922, 0.9920000471174717, 0.0, 0.0, 0.0, 0.0, 0.0, 1.7404840107342098E9, 0.0, 2025-02-25 11:46:50.734
13.0, -332.29011106304824, -973.7128726635128, 15.163424370344728, 27.484524774365127, -0.03200000151991844, -0.01600000075995922, 0.9920000471174717, 0.0, 0.0, 0.0, 0.0, 0.0, 1.7404840107342527E9, 0.0, 2025-02-25 11:46:50.734
14.0, -241.9135586838238, -806.309340796899, 13.315913792233914, 111.6640629270114, -0.03200000151991844, -0.01600000075995922, 0.9920000471174717, 0.0, 0.0, 0.0, 0.0, 0.0, 1.7404840107637305E9, 0.0, 2025-02-25 11:46:50.763
14.0, -474.35395077988505, -1032.4405216677114, 10.047241230960935, -81.62705643288791, -0.03200000151991844, -0.01600000075995922, 0.9920000471174717, 0.0, 0.0, 0.0, 0.0, 0.0, 1.7404840107639887E9, 0.0, 2025-02-25 11:46:50.763
15.0, -583.2355281398632, -1226.367424020078, 8.341846851166338, -202.08736405568197, -0.03200000151991844, -0.01600000075995922, 0.9920000471174717, 0.0, 0.0, 0.0, 0.0, 0.0, 1.7404840107641072E9, 0.0, 2025-02-25 11:46:50.764
15.0, -348.1585065750405, -985.964784918353, 13.330873392056674, 3.9605540530756116, -0.03200000151991844, -0.01600000075995922, 0.9920000471174717, 0.0, 0.0, 0.0, 0.0, 0.0, 1.740484010764174E9, 0.0, 2025-02-25 11:46:50.764
16.0, -226.47151176678017, -785.5005374434404, 16.038560959976166, 117.46464775828645, -0.03200000151991844, -0.01600000075995922, 0.9920000471174717, 0.0, 0.0, 0.0, 0.0, 0.0, 1.7404840107646136E9, 0.0, 2025-02-25 11:46:50.764
16.0, 7.605086559895426, -550.5226232274435, 9.018768743146211, -99.9002076163888, -0.03200000151991844, -0.01600000075995922, 0.9920000471174717, 0.0, 0.0, 0.0, 0.0, 0.0, 1.740484010764678E9, 0.0, 2025-02-25 11:46:50.764
17.0, -112.88888016249985, -742.7665705997497, 12.867125797551125, -216.83378958096728, -0.03200000151991844, -0.01600000075995922, 0.9920000471174717, 0.0, 0.0, 0.0, 0.0, 0.0, 1.740484010765247E9, 0.0, 2025-02-25 11:46:50.765
17.0, -338.17671359330416, -967.3849619384855, 11.565640612971038, 25.550996497273445, -0.03200000151991844, -0.01600000075995922, 0.9920000471174717, 0.0, 0.0, 0.0, 0.0, 0.0, 1.7404840107653222E9, 0.0, 2025-02-25 11:46:50.765
18.0, -227.70941865211353, -784.9395524500869, 8.62981914775446, 120.84551731823012, -0.03200000151991844, -0.01600000075995922, 0.9920000471174717, 0.0, 0.0, 0.0, 0.0, 0.0, 1.7404840107935674E9, 0.0, 2025-02-25 11:46:50.793
18.0, -14.220969581510872, -562.1873711892404, 11.775075010489672, -118.59222759492695, -0.03200000151991844, -0.01600000075995922, 0.9920000471174717, 0.0, 0.0, 0.0, 0.0, 0.0, 1.7404840107936523E9, 0.0, 2025-02-25 11:46:50.793
19.0, -108.59547501336783, -739.699852636084, 13.140138494316489, -211.29125784663484, -0.03200000151991844, -0.01600000075995922, 0.9920000471174717, 0.0, 0.0, 0.0, 0.0, 0.0, 1.7404840107938485E9, 0.0, 2025-02-25 11:46:50.793
19.0, -351.988164129667, -970.1487480057403, 13.712343187537044, 22.237445136532187, -0.03200000151991844, -0.01600000075995922, 0.9920000471174717, 0.0, 0.0, 0.0, 0.0, 0.0, 1.7404840107939312E9, 0.0, 2025-02-25 11:46:50.793
20.0, -267.45333548123017, -804.8694793139584, 15.413997667375952, 101.15868395147845, -0.03200000151991844, -0.01600000075995922, 0.9920000471174717, 0.0, 0.0, 0.0, 0.0, 0.0, 1.74048401082392E9, 0.0, 2025-02-25 11:46:50.823
20.0, -512.489710628055, -1038.0728110009804, 12.216383205261081, -106.02616374380887, -0.03200000151991844, -0.01600000075995922, 0.9920000471174717, 0.0, 0.0, 0.0, 0.0, 0.0, 1.740484010824016E9, 0.0, 2025-02-25 11:46:50.824
21.0, -604.7810917845927, -1230.5598518704064, 6.374659474473447, -208.48259297991171, -0.03200000151991844, -0.01600000075995922, 0.9920000471174717, 0.0, 0.0, 0.0, 0.0, 0.0, 1.7404840108242636E9, 0.0, 2025-02-25 11:46:50.824
21.0, -845.6082095312886, -989.9515182711184, 12.732489399146289, 4.517799146473408, -0.03200000151991844, -0.01600000075995922, 0.9920000471174717, 0.0, 0.0, 0.0, 0.0, 0.0, 1.7404840108243527E9, 0.0, 2025-02-25 11:46:50.824
22.0, -709.9040696891025, -786.7459241286851, 14.796914174687117, 124.2263868781738, -0.03200000151991844, -0.01600000075995922, 0.9920000471174717, 0.0, 0.0, 0.0, 0.0, 0.0, 1.7404840108248405E9, 0.0, 2025-02-25 11:46:50.824
22.0, -497.32441630773246, -553.3836466935463, 10.832620221655816, -90.53549812734127, -0.03200000151991844, -0.01600000075995922, 0.9920000471174717, 0.0, 0.0, 0.0, 0.0, 0.0, 1.740484010824931E9, 0.0, 2025-02-25 11:46:50.824
23.0, -602.8774827071466, -744.4607452796772, 8.368026150856167, -205.65896851336583, -0.03200000151991844, -0.01600000075995922, 0.9920000471174717, 0.0, 0.0, 0.0, 0.0, 0.0, 1.740484010825412E9, 0.0, 2025-02-25 11:46:50.825
23.0, -789.5059702959843, -945.3868703991175, 13.199976893607527, -445.27809857437387, -0.03200000151991844, -0.01600000075995922, 0.9920000471174717, 0.0, 0.0, 0.0, 0.0, 0.0, 1.7404840108254817E9, 0.0, 2025-02-25 11:46:50.825
24.0, -678.7993217576295, -766.8421765645035, 13.929257384967059, -344.95715221296996, -0.03200000151991844, -0.01600000075995922, 0.9920000471174717, 0.0, 0.0, 0.0, 0.0, 0.0, 1.740484010853624E9, 0.0, 2025-02-25 11:46:50.853
24.0, -485.1547818519175, -562.1237928899936, 13.753482087049633, -108.52067701425403, -0.03200000151991844, -0.01600000075995922, 0.9920000471174717, 0.0, 0.0, 0.0, 0.0, 0.0, 1.7404840108537736E9, 0.0, 2025-02-25 11:46:50.853
25.0, -572.6291718655266, -734.1498411018401, 10.133258929941803, -194.15877614961937, -0.03200000151991844, -0.01600000075995922, 0.9920000471174717, 0.0, 0.0, 0.0, 0.0, 0.0, 1.740484010853848E9, 0.0, 2025-02-25 11:46:50.853
25.0, -795.8189214211889, -962.6165894949809, 11.625479012262076, 42.070134601555765, -0.03200000151991844, -0.01600000075995922, 0.9920000471174717, 0.0, 0.0, 0.0, 0.0, 0.0, 1.7404840108538847E9, 0.0, 2025-02-25 11:46:50.853
26.0, -718.5394986867905, -800.942584360484, 16.973535948898643, 120.32941112434492, -0.03200000151991844, -0.01600000075995922, 0.9920000471174717, 0.0, 0.0, 0.0, 0.0, 0.0, 1.7404840108837192E9, 0.0, 2025-02-25 11:46:50.883
26.0, -481.54577839467674, -565.5308417496271, 9.123485941905528, -97.08780284970999, -0.03200000151991844, -0.01600000075995922, 0.9920000471174717, 0.0, 0.0, 0.0, 0.0, 0.0, 1.7404840108838148E9, 0.0, 2025-02-25 11:46:50.883
27.0, -590.9060629489832, -754.0161896664649, 7.702323958743364, -211.87094233976677, -0.03200000151991844, -0.01600000075995922, 0.9920000471174717, 0.0, 0.0, 0.0, 0.0, 0.0, 1.7404840108838973E9, 0.0, 2025-02-25 11:46:50.883
27.0, -813.7779210084118, -998.2391365729272, 14.385525179561228, 8.616729497909546, -0.03200000151991844, -0.01600000075995922, 0.9920000471174717, 0.0, 0.0, 0.0, 0.0, 0.0, 1.7404840108840392E9, 0.0, 2025-02-25 11:46:50.884
28.0, -709.8778903894126, -802.2365897451527, 10.028541731182486, 125.34835686488077, -0.03200000151991844, -0.01600000075995922, 0.9920000471174717, 0.0, 0.0, 0.0, 0.0, 0.0, 1.7404840108844976E9, 0.0, 2025-02-25 11:46:50.884
28.0, -505.7578907078132, -587.1175442938693, 13.042901095468551, 358.403962503653, -0.03200000151991844, -0.01600000075995922, 0.9920000471174717, 0.0, 0.0, 0.0, 0.0, 0.0, 1.740484010884568E9, 0.0, 2025-02-25 11:46:50.884
29.0, -621.2104722899385, -794.7960587833077, 10.69798382325098, 239.64530936069787, -0.03200000151991844, -0.01600000075995922, 0.9920000471174717, 0.0, 0.0, 0.0, 0.0, 0.0, 1.7404840108851366E9, 0.0, 2025-02-25 11:46:50.885
29.0, -817.2560279672034, -999.2414297610521, 13.428110790904611, 5.8940823301672935, -0.03200000151991844, -0.01600000075995922, 0.9920000471174717, 0.0, 0.0, 0.0, 0.0, 0.0, 1.740484010885176E9, 0.0, 2025-02-25 11:46:50.885
30.0, -740.4291331274435, -838.9736270098947, 11.928410908672959, 89.68467088742182, -0.03200000151991844, -0.01600000075995922, 0.9920000471174717, 0.0, 0.0, 0.0, 0.0, 0.0, 1.740484010913628E9, 0.0, 2025-02-25 11:46:50.913
30.0, -544.8735043443739, -637.6024537957273, 13.413151191081852, 310.9708113656379, -0.03200000151991844, -0.01600000075995922, 0.9920000471174717, 0.0, 0.0, 0.0, 0.0, 0.0, 1.7404840109137309E9, 0.0, 2025-02-25 11:46:50.913
31.0, -617.4930117339827, -767.6107260053977, 6.62523277150467, 244.44360100384802, -0.03200000151991844, -0.01600000075995922, 0.9920000471174717, 0.0, 0.0, 0.0, 0.0, 0.0, 1.7404840109139173E9, 0.0, 2025-02-25 11:46:50.913
31.0, -812.8055470199324, -975.2013528458774, 11.03457481926307, 482.1348126376979, -0.03200000151991844, -0.01600000075995922, 0.9920000471174717, 0.0, 0.0, 0.0, 0.0, 0.0, 1.740484010914098E9, 0.0, 2025-02-25 11:46:50.914
32.0, -738.5217841500416, -799.4391445782967, 16.031081160064787, 552.6824154518545, -0.03200000151991844, -0.01600000075995922, 0.9920000471174717, 0.0, 0.0, 0.0, 0.0, 0.0, 1.7404840109437363E9, 0.0, 2025-02-25 11:46:50.943
32.0, -520.2313035363331, -1004.0060623046011, 10.626925724092871, 322.93849122384563, -0.03200000151991844, -0.01600000075995922, 0.9920000471174717, 0.0, 0.0, 0.0, 0.0, 0.0, 1.7404840109438317E9, 0.0, 2025-02-25 11:46:50.943
33.0, -637.3855395982973, -1173.1374279507436, 11.718976511154324, 222.8082797601819, -0.03200000151991844, -0.01600000075995922, 0.9920000471174717, 0.0, 0.0, 0.0, 0.0, 0.0, 1.7404840109445555E9, 0.0, 2025-02-25 11:46:50.944
33.0, -847.1602680128999, -1373.2744341795333, 15.402777967508882, 452.17447409266606, -0.03200000151991844, -0.01600000075995922, 0.9920000471174717, 0.0, 0.0, 0.0, 0.0, 0.0, 1.7404840109446127E9, 0.0, 2025-02-25 11:46:50.944
34.0, -718.1879480909556, -1160.9135649455711, 10.944817220326513, 561.0635312525555, -0.03200000151991844, -0.01600000075995922, 0.9920000471174717, 0.0, 0.0, 0.0, 0.0, 0.0, 1.7404840109447486E9, 0.0, 2025-02-25 11:46:50.944
34.0, -518.5558283561841, -956.7636460643262, 10.724163122940809, 789.1226305505261, -0.03200000151991844, -0.01600000075995922, 0.9920000471174717, 0.0, 0.0, 0.0, 0.0, 0.0, 1.7404840109448116E9, 0.0, 2025-02-25 11:46:50.944
35.0, -622.8672479703091, -1141.8681244212203, 9.231943040620536, 695.2268323129974, -0.03200000151991844, -0.01600000075995922, 0.9920000471174717, 0.0, 0.0, 0.0, 0.0, 0.0, 1.7404840109452543E9, 0.0, 2025-02-25 11:46:50.945
35.0, -811.1599910394289, -1349.084761266131, 10.525948425289243, 476.730657201726, -0.03200000151991844, -0.01600000075995922, 0.9920000471174717, 0.0, 0.0, 0.0, 0.0, 0.0, 1.7404840109453232E9, 0.0, 2025-02-25 11:46:50.945
36.0, -719.3323574773967, -1193.443214760162, 7.904278556350619, 549.6568363877013, -0.03200000151991844, -0.01600000075995922, 0.9920000471174717, 0.0, 0.0, 0.0, 0.0, 0.0, 1.740484010973369E9, 0.0, 2025-02-25 11:46:50.973
36.0, -544.884724044241, -995.0639615105465, 15.275621369015425, 784.7357279025018, -0.03200000151991844, -0.01600000075995922, 0.9920000471174717, 0.0, 0.0, 0.0, 0.0, 0.0, 1.7404840109734523E9, 0.0, 2025-02-25 11:46:50.973
37.0, -619.2844238127582, -1148.431648843456, 9.710650234948844, 720.2318034167401, -0.03200000151991844, -0.01600000075995922, 0.9920000471174717, 0.0, 0.0, 0.0, 0.0, 0.0, 1.740484010973814E9, 0.0, 2025-02-25 11:46:50.973
37.0, -813.3403527135961, -1375.4585357536562, 11.03831471921876, 483.8439469174482, -0.03200000151991844, -0.01600000075995922, 0.9920000471174717, 0.0, 0.0, 0.0, 0.0, 0.0, 1.7404840109739263E9, 0.0, 2025-02-25 11:46:50.973
38.0, -730.1743274489418, -1218.8857541587204, 15.825386662501842, 563.759999120608, -0.03200000151991844, -0.01600000075995922, 0.9920000471174717, 0.0, 0.0, 0.0, 0.0, 0.0, 1.7404840110036044E9, 0.0, 2025-02-25 11:46:51.003
38.0, -522.3219076115638, -993.9644309235737, 9.202023840975016, 318.9031391716562, -0.03200000151991844, -0.01600000075995922, 0.9920000471174717, 0.0, 0.0, 0.0, 0.0, 0.0, 1.740484011003667E9, 0.0, 2025-02-25 11:46:51.003
39.0, -625.7207916365005, -1183.9831378222443, 7.952897255774587, 225.18685613200068, -0.03200000151991844, -0.01600000075995922, 0.9920000471174717, 0.0, 0.0, 0.0, 0.0, 0.0, 1.7404840110038543E9, 0.0, 2025-02-25 11:46:51.003
39.0, -820.6181980273686, -1398.5187588804401, 11.382385515142232, -12.177114255726337, -0.03200000151991844, -0.01600000075995922, 0.9920000471174717, 0.0, 0.0, 0.0, 0.0, 0.0, 1.740484011003911E9, 0.0, 2025-02-25 11:46:51.003
40.0, -715.9215687178075, -1211.6490477444604, 14.927810673136264, 92.62797215254977, -0.03200000151991844, -0.01600000075995922, 0.9920000471174717, 0.0, 0.0, 0.0, 0.0, 0.0, 1.740484011004484E9, 0.0, 2025-02-25 11:46:51.004
40.0, -536.7654012404382, -1020.5289403088391, 10.540908025112003, 308.36784099647775, -0.03200000151991844, -0.01600000075995922, 0.9920000471174717, 0.0, 0.0, 0.0, 0.0, 0.0, 1.7404840110046065E9, 0.0, 2025-02-25 11:46:51.004
41.0, -635.0780213256367, -1197.6562120602466, 13.192497093696147, 216.37191193643957, -0.03200000151991844, -0.01600000075995922, 0.9920000471174717, 0.0, 0.0, 0.0, 0.0, 0.0, 1.7404840110051632E9, 0.0, 2025-02-25 11:46:51.005
41.0, -800.9538040603511, -1390.511633075308, 14.935290473047644, 2.0831242753192782, -0.03200000151991844, -0.01600000075995922, 0.9920000471174717, 0.0, 0.0, 0.0, 0.0, 0.0, 1.7404840110052423E9, 0.0, 2025-02-25 11:46:51.005
42.0, -721.4940196517855, -1240.513595602475, 12.575413601007313, 83.48765666084364, -0.04800000227987766, -0.01600000075995922, 0.9920000471174717, 0.0, 0.0, 0.0, 0.0, 0.0, 1.7404840110336266E9, 0.0, 2025-02-25 11:46:51.033
42.0, -546.6013381239027, -1034.0823377482593, 9.493736037518829, 315.15575941605493, -0.04800000227987766, -0.01600000075995922, 0.9920000471174717, 0.0, 0.0, 0.0, 0.0, 0.0, 1.7404840110336802E9, 0.0, 2025-02-25 11:46:51.033
43.0, -622.1192679791711, -1197.398158963304, 12.979322796221823, 229.82059217710048, -0.04800000227987766, -0.01600000075995922, 0.9920000471174717, 0.0, 0.0, 0.0, 0.0, 0.0, 1.7404840110339143E9, 0.0, 2025-02-25 11:46:51.033
43.0, -804.8096409146674, -1405.4861924978904, 15.238222369458526, 3.7249403558671474, -0.04800000227987766, -0.01600000075995922, 0.9920000471174717, 0.0, 0.0, 0.0, 0.0, 0.0, 1.7404840110339842E9, 0.0, 2025-02-25 11:46:51.033
44.0, -711.055958875455, -1242.0768737839535, 12.395898403134197, 92.60553275281563, -0.04800000227987766, -0.01600000075995922, 0.9920000471174717, 0.0, 0.0, 0.0, 0.0, 0.0, 1.7404840110634906E9, 0.0, 2025-02-25 11:46:51.063
44.0, -516.2595297833905, -1026.1275705425069, 11.180430917534977, 335.41105757607147, -0.04800000227987766, -0.01600000075995922, 0.9920000471174717, 0.0, 0.0, 0.0, 0.0, 0.0, 1.7404840110637E9, 0.0, 2025-02-25 11:46:51.063
45.0, -622.1230078791268, -1206.8077472518198, 8.973889943677932, 236.5898110968992, -0.04800000227987766, -0.01600000075995922, 0.9920000471174717, 0.0, 0.0, 0.0, 0.0, 0.0, 1.7404840110640085E9, 0.0, 2025-02-25 11:46:51.064
45.0, -789.5770283951424, -1393.0772044449113, 7.616306259762496, 20.303916859440506, -0.04800000227987766, -0.01600000075995922, 0.9920000471174717, 0.0, 0.0, 0.0, 0.0, 0.0, 1.7404840110640728E9, 0.0, 2025-02-25 11:46:51.064
46.0, -688.0219150483608, -1220.8417218355462, 13.06908039515838, 119.82452463032678, -0.04800000227987766, -0.01600000075995922, 0.9920000471174717, 0.0, 0.0, 0.0, 0.0, 0.0, 1.740484011064598E9, 0.0, 2025-02-25 11:46:51.064
46.0, -525.4634235743433, -1042.6504485467449, 11.128072318155318, 328.53338155755773, -0.04800000227987766, -0.01600000075995922, 0.9920000471174717, 0.0, 0.0, 0.0, 0.0, 0.0, 1.7404840110646768E9, 0.0, 2025-02-25 11:46:51.064
47.0, -608.685547338333, -1200.8687861221842, 10.215536728966981, 253.03041130211204, -0.04800000227987766, -0.01600000075995922, 0.9920000471174717, 0.0, 0.0, 0.0, 0.0, 0.0, 1.7404840110653417E9, 0.0, 2025-02-25 11:46:51.065
47.0, -772.9905720916577, -1373.3342725788243, 9.994882631581277, 56.087279635481536, -0.04800000227987766, -0.01600000075995922, 0.9920000471174717, 0.0, 0.0, 0.0, 0.0, 0.0, 1.7404840110654109E9, 0.0, 2025-02-25 11:46:51.065
48.0, -708.3594910074025, -1228.7890092413872, 11.636698712129146, 119.76094633108005, -0.04800000227987766, -0.01600000075995922, 0.9920000471174717, 0.0, 0.0, 0.0, 0.0, 0.0, 1.7404840110937555E9, 0.0, 2025-02-25 11:46:51.093
48.0, -499.3103031842038, -1009.5897329384461, 10.23423622874543, 355.83091133413836, -0.04800000227987766, -0.01600000075995922, 0.9920000471174717, 0.0, 0.0, 0.0, 0.0, 0.0, 1.740484011093881E9, 0.0, 2025-02-25 11:46:51.093
49.0, -599.3806762485765, -1171.9593594647013, 12.739969199057668, 275.2416771389544, -0.04800000227987766, -0.01600000075995922, 0.9920000471174717, 0.0, 0.0, 0.0, 0.0, 0.0, 1.7404840110945303E9, 0.0, 2025-02-25 11:46:51.094
49.0, -794.7380903339945, -1375.978381847497, 10.828880321700126, 58.974482401274145, -0.04800000227987766, -0.01600000075995922, 0.9920000471174717, 0.0, 0.0, 0.0, 0.0, 0.0, 1.7404840110946305E9, 0.0, 2025-02-25 11:46:51.094
50.0, -683.9828230962157, -1175.8432455686852, 11.015875319484621, 178.9897419293411, -0.04800000227987766, -0.01600000075995922, 0.9920000471174717, 0.0, 0.0, 0.0, 0.0, 0.0, 1.7404840111235237E9, 0.0, 2025-02-25 11:46:51.123
50.0, -510.3168287537992, -997.4088787827641, 15.208303169813007, 382.3505419199355, -0.04800000227987766, -0.01600000075995922, 0.9920000471174717, 0.0, 0.0, 0.0, 0.0, 0.0, 1.7404840111236725E9, 0.0, 2025-02-25 11:46:51.123
51.0, -623.4880713629536, -1171.877081665676, 9.88642553286627, 297.2435085782781, -0.04800000227987766, -0.01600000075995922, 0.9920000471174717, 0.0, 0.0, 0.0, 0.0, 0.0, 1.7404840111241567E9, 0.0, 2025-02-25 11:46:51.124
51.0, -768.1287021492608, -1317.7219602377154, 12.926964196842164, 122.22367045190185, -0.04800000227987766, -0.01600000075995922, 0.9920000471174717, 0.0, 0.0, 0.0, 0.0, 0.0, 1.740484011124251E9, 0.0, 2025-02-25 11:46:51.124
52.0, -678.3280943632126, -1154.9185053166002, 10.933597520459443, 212.0467176376842, -0.04800000227987766, -0.01600000075995922, 0.9920000471174717, 0.0, 0.0, 0.0, 0.0, 0.0, 1.740484011124658E9, 0.0, 2025-02-25 11:46:51.124
52.0, -525.2053704774007, -976.2223455337808, 11.46092341421172, 399.22871041996405, -0.04800000227987766, -0.01600000075995922, 0.9920000471174717, 0.0, 0.0, 0.0, 0.0, 0.0, 1.7404840111247106E9, 0.0, 2025-02-25 11:46:51.124
53.0, -600.6185831339099, -1115.771102530416, 10.043501331005245, 335.3904881263152, -0.04800000227987766, -0.01600000075995922, 0.9920000471174717, 0.0, 0.0, 0.0, 0.0, 0.0, 1.7404840111251554E9, 0.0, 2025-02-25 11:46:51.125
53.0, -765.4135347814299, -1306.2778663733043, 13.11395919462666, 134.10907251108438, -0.04800000227987766, -0.01600000075995922, 0.9920000471174717, 0.0, 0.0, 0.0, 0.0, 0.0, 1.7404840111252024E9, 0.0, 2025-02-25 11:46:51.125
54.0, -689.7759281275794, -1159.8626530580223, 11.45718351425603, 205.4869331154041, -0.04800000227987766, -0.01600000075995922, 0.9920000471174717, 0.0, 0.0, 0.0, 0.0, 0.0, 1.740484011153947E9, 0.0, 2025-02-25 11:46:51.153
54.0, -498.7455782908946, -957.5565048549324, 11.681577511597425, 427.4350358857773, -0.04800000227987766, -0.01600000075995922, 0.9920000471174717, 0.0, 0.0, 0.0, 0.0, 0.0, 1.740484011154111E9, 0.0, 2025-02-25 11:46:51.154
55.0, -596.8113649790175, -1128.4867623797618, 11.550681013148278, 342.40654044318944, -0.04800000227987766, -0.01600000075995922, 0.9920000471174717, 0.0, 0.0, 0.0, 0.0, 0.0, 1.740484011154312E9, 0.0, 2025-02-25 11:46:51.154
55.0, -747.5255932933651, -1309.815811731387, 16.603285853285342, 150.407556517981, -0.04800000227987766, -0.01600000075995922, 0.9920000471174717, 0.0, 0.0, 0.0, 0.0, 0.0, 1.7404840111543858E9, 0.0, 2025-02-25 11:46:51.154
56.0, -649.919814299792, -1132.464145982638, 14.3219468803145, 241.53208888834342, -0.04800000227987766, -0.01600000075995922, 0.9920000471174717, 0.0, 0.0, 0.0, 0.0, 0.0, 1.740484011183804E9, 0.0, 2025-02-25 11:46:51.183
56.0, -516.0126963863149, -976.2485248334706, 14.957729872781783, 420.78923366451636, -0.04800000227987766, -0.01600000075995922, 0.9920000471174717, 0.0, 0.0, 0.0, 0.0, 0.0, 1.7404840111838877E9, 0.0, 2025-02-25 11:46:51.183
57.0, -604.2201067912392, -1146.2101482697763, 10.772781822364777, 333.96184634324163, -0.04800000227987766, -0.01600000075995922, 0.9920000471174717, 0.0, 0.0, 0.0, 0.0, 0.0, 1.7404840111840034E9, 0.0, 2025-02-25 11:46:51.184
57.0, -737.6036387109198, -1320.7624989016913, 12.747448998969048, 146.49936106428504, -0.04800000227987766, -0.01600000075995922, 0.9920000471174717, 0.0, 0.0, 0.0, 0.0, 0.0, 1.7404840111840615E9, 0.0, 2025-02-25 11:46:51.184
58.0, -652.2983906716108, -1168.946870050393, 9.467556737829, 208.74064607685432, -0.04800000227987766, -0.01600000075995922, 0.9920000471174717, 0.0, 0.0, 0.0, 0.0, 0.0, 1.7404840111846292E9, 0.0, 2025-02-25 11:46:51.184
58.0, -510.48138435184956, -1004.6979437964037, 7.807041157502681, 395.9936969582923, -0.04800000227987766, -0.01600000075995922, 0.9920000471174717, 0.0, 0.0, 0.0, 0.0, 0.0, 1.740484011184697E9, 0.0, 2025-02-25 11:46:51.184
59.0, -583.6880560345016, -1158.8547500199638, 6.722470170352608, 320.0793377077207, -0.04800000227987766, -0.01600000075995922, 0.9920000471174717, 0.0, 0.0, 0.0, 0.0, 0.0, 1.7404840111852765E9, 0.0, 2025-02-25 11:46:51.185
59.0, -749.2496871729381, -1357.6640917644836, 11.670357811730355, 102.18902638927102, -0.04800000227987766, -0.01600000075995922, 0.9920000471174717, 0.0, 0.0, 0.0, 0.0, 0.0, 1.740484011185344E9, 0.0, 2025-02-25 11:46:51.185
60.0, -654.0636234506965, -1183.8017526743934, 13.91055788518861, 187.771027025301, -0.04800000227987766, -0.01600000075995922, 0.9920000471174717, 0.0, 0.0, 0.0, 0.0, 0.0, 1.7404840112146385E9, 0.0, 2025-02-25 11:46:51.214
60.0, -511.9511650344357, -1015.6147117670625, 16.569626753684133, 381.9690721244551, -0.04800000227987766, -0.01600000075995922, 0.9920000471174717, 0.0, 0.0, 0.0, 0.0, 0.0, 1.74048401121472E9, 0.0, 2025-02-25 11:46:51.214
61.0, -603.4908262998797, -1200.1282859309576, 11.621739112306386, 277.6539126103744, -0.04800000227987766, -0.01600000075995922, 0.9920000471174717, 0.0, 0.0, 0.0, 0.0, 0.0, 1.7404840112149167E9, 0.0, 2025-02-25 11:46:51.214
61.0, -742.798359749373, -1363.9471236900426, 12.620292400475591, 105.06126955524087, -0.04800000227987766, -0.01600000075995922, 0.9920000471174717, 0.0, 0.0, 0.0, 0.0, 0.0, 1.7404840112149787E9, 0.0, 2025-02-25 11:46:51.214
62.0, -643.7489793729037, -1206.540344404988, 15.223262769635767, 173.07696009939536, -0.03200000151991844, -0.01600000075995922, 0.9920000471174717, 0.0, 0.0, 0.0, 0.0, 0.0, 1.7404840112534623E9, 0.0, 2025-02-25 11:46:51.253
62.0, -517.85646706447, -1059.6258544456214, 13.536567889619619, 334.08339309180155, -0.03200000151991844, -0.01600000075995922, 0.9920000471174717, 0.0, 0.0, 0.0, 0.0, 0.0, 1.7404840112535949E9, 0.0, 2025-02-25 11:46:51.253
63.0, -606.2583522670902, -1211.7406752933748, 14.415444379206747, 257.46967254951596, -0.03200000151991844, -0.01600000075995922, 0.9920000471174717, 0.0, 0.0, 0.0, 0.0, 0.0, 1.740484011256935E9, 0.0, 2025-02-25 11:46:51.256
63.0, -746.2951662079431, -1377.9268697244115, 13.147618294227868, 78.38830307126045, -0.03200000151991844, -0.01600000075995922, 0.9920000471174717, 0.0, 0.0, 0.0, 0.0, 0.0, 1.74048401125707E9, 0.0, 2025-02-25 11:46:51.257
64.0, -656.0008916277438, -1243.3073008693755, 10.469849925953895, 139.70209289481863, -0.03200000151991844, -0.01600000075995922, 0.9920000471174717, 0.0, 0.0, 0.0, 0.0, 0.0, 1.7404840112571485E9, 0.0, 2025-02-25 11:46:51.257
64.0, -526.2001838656142, -1084.066100656055, 9.108526342082769, 307.4553054072894, -0.03200000151991844, -0.01600000075995922, 0.9920000471174717, 0.0, 0.0, 0.0, 0.0, 0.0, 1.740484011257212E9, 0.0, 2025-02-25 11:46:51.257
65.0, -623.1402606670745, -1254.2745574894361, 12.29866100428626, 221.77980727236718, -0.03200000151991844, -0.01600000075995922, 0.9920000471174717, 0.0, 0.0, 0.0, 0.0, 0.0, 1.7404840112572787E9, 0.0, 2025-02-25 11:46:51.257
65.0, -764.9722265866585, -1435.921498337295, 19.348372420761734, 31.564755626022816, -0.03200000151991844, -0.01600000075995922, 0.9920000471174717, 0.0, 0.0, 0.0, 0.0, 0.0, 1.7404840112573397E9, 0.0, 2025-02-25 11:46:51.257
66.0, -660.0549431797117, -1261.4121565548703, 10.29781452799216, 130.95820679841563, -0.03200000151991844, -0.01600000075995922, 0.9920000471174717, 0.0, 0.0, 0.0, 0.0, 0.0, 1.740484011280125E9, 0.0, 2025-02-25 11:46:51.280
66.0, -533.4668094795197, -1129.4273472186178, 11.617999212350696, 299.3733816030435, -0.03200000151991844, -0.01600000075995922, 0.9920000471174717, 0.0, 0.0, 0.0, 0.0, 0.0, 1.7404840112802143E9, 0.0, 2025-02-25 11:46:51.280
67.0, -621.0272171921097, -1321.9443072876893, 10.69424392329529, 209.15764492191374, -0.03200000151991844, -0.01600000075995922, 0.9920000471174717, 0.0, 0.0, 0.0, 0.0, 0.0, 1.7404840112803571E9, 0.0, 2025-02-25 11:46:51.280
67.0, -738.1646237042733, -1470.5492320270278, 11.88353210920468, 62.602185358293355, -0.03200000151991844, -0.01600000075995922, 0.9920000471174717, 0.0, 0.0, 0.0, 0.0, 0.0, 1.7404840112804835E9, 0.0, 2025-02-25 11:46:51.280
68.0, -636.7778058554977, -1318.4418909791857, 8.536321648862213, 145.77569042285904, -0.03200000151991844, -0.01600000075995922, 0.9920000471174717, 0.0, 0.0, 0.0, 0.0, 0.0, 1.7404840113262608E9, 0.0, 2025-02-25 11:46:51.326
68.0, -530.9535967092961, -1193.1066237641498, 9.759268934372813, 279.0769445435144, -0.03200000151991844, -0.01600000075995922, 0.9920000471174717, 0.0, 0.0, 0.0, 0.0, 0.0, 1.740484011326366E9, 0.0, 2025-02-25 11:46:51.326
