%OpenBCI Raw EXG Data
%Number of channels = 4
%Sample Rate = 200 Hz
%Board = OpenBCI_GUI$BoardGanglionNative
Sample Index, EXG Channel 0, EXG Channel 1, EXG Channel 2, EXG Channel 3, Accel Channel 0, Accel Channel 1, Accel Channel 2, Other, Other, Other, Other, Other, Timestamp, Marker Channel, Timestamp (Formatted)
0.0, 98.23034228617325, -58.79870710335672, 10.013582131359726, -24.264470912516117, 0.0, 0.0, 0.0, 0.0, 0.0, 0.0, 0.0, 0.0, 1.7404843000292673E9, 0.0, 2025-02-25 11:51:40.029
1.0, -136.6391148311086, -192.36549412086606, 13.805840686429292, -246.49680607952178, 0.0, -0.01600000075995922, 0.0, 0.0, 0.0, 0.0, 0.0, 0.0, 1.7404843000294335E9, 0.0, 2025-02-25 11:51:40.029
1.0, -322.95532077364624, -418.5976522904821, 12.220123105216771, -412.46047646319494, 0.0, -0.01600000075995922, 0.0, 0.0, 0.0, 0.0, 0.0, 0.0, 1.7404843000295353E9, 0.0, 2025-02-25 11:51:40.029
2.0, -556.6897182543762, -269.64491685526446, 15.11106577096507, -183.37664457736537, 0.0, -0.01600000075995922, 0.0, 0.0, 0.0, 0.0, 0.0, 0.0, 1.7404843000591233E9, 0.0, 2025-02-25 11:51:40.059
2.0, -364.1017000861466, -32.27159671764821, 14.763255075085908, -0.5273258937522769, 0.0, -0.01600000075995922, 0.0, 0.0, 0.0, 0.0, 0.0, 0.0, 1.740484300059204E9, 0.0, 2025-02-25 11:51:40.059
3.0, -141.73285857075825, -190.61896084155887, 14.415444379206747, 234.54969567107037, 0.0, -0.01600000075995922, 0.0, 0.0, 0.0, 0.0, 0.0, 0.0, 1.7404843000594456E9, 0.0, 2025-02-25 11:51:40.059
3.0, -356.4648243766278, 29.163739854469895, 12.504355501849204, 22.779730630107224, 0.0, -0.01600000075995922, 0.0, 0.0, 0.0, 0.0, 0.0, 0.0, 1.7404843000594976E9, 0.0, 2025-02-25 11:51:40.059
4.0, -117.60489400662482, 176.43726020958275, 13.671204288024455, 254.12994188908488, 0.0, -0.01600000075995922, 0.0, 0.0, 0.0, 0.0, 0.0, 0.0, 1.7404843000610454E9, 0.0, 2025-02-25 11:51:40.061
4.0, 72.88504028646275, 413.2570751537569, 16.64816465275362, 428.01472037890926, 0.0, -0.01600000075995922, 0.0, 0.0, 0.0, 0.0, 0.0, 0.0, 1.7404843000611477E9, 0.0, 2025-02-25 11:51:40.061
5.0, 306.98594796285033, 259.45368947600946, 9.85276643326506, 184.67438986198977, 0.0, -0.01600000075995922, 0.0, 0.0, 0.0, 0.0, 0.0, 0.0, 1.740484300061242E9, 0.0, 2025-02-25 11:51:40.061
5.0, 96.42771050753072, 498.35475874552503, 9.273081940133125, -5.826764130964875, 0.0, -0.01600000075995922, 0.0, 0.0, 0.0, 0.0, 0.0, 0.0, 1.7404843000613227E9, 0.0, 2025-02-25 11:51:40.061
6.0, -135.01038840040565, 660.1129116290249, 14.078853383194655, 237.60706388484687, 0.0, -0.01600000075995922, 0.0, 0.0, 0.0, 0.0, 0.0, 0.0, 1.7404843000891497E9, 0.0, 2025-02-25 11:51:40.089
6.0, 71.16842620680109, 416.57436641445383, 14.228449381422251, 427.9548819796182, 0.0, -0.01600000075995922, 0.0, 0.0, 0.0, 0.0, 0.0, 0.0, 1.7404843000893629E9, 0.0, 2025-02-25 11:51:40.089
7.0, 304.13240429665893, 254.77881453139707, 16.098399359267205, 672.2283175354823, 0.0, -0.01600000075995922, 0.0, 0.0, 0.0, 0.0, 0.0, 0.0, 1.7404843000894501E9, 0.0, 2025-02-25 11:51:40.089
7.0, 94.8045939267613, 495.96870257379487, 9.05242784274742, 487.3594528757967, 0.0, -0.01600000075995922, 0.0, 0.0, 0.0, 0.0, 0.0, 0.0, 1.7404843000895288E9, 0.0, 2025-02-25 11:51:40.089
8.0, -137.4749824712053, 652.4498566198163, 10.054721030872315, 726.3390600443818, 0.0, -0.01600000075995922, 0.0, 0.0, 0.0, 0.0, 0.0, 0.0, 1.7404843001189382E9, 0.0, 2025-02-25 11:51:40.118
8.0, 69.75848392350599, 415.3738585286774, 15.9151442614384, 919.6226996043697, 0.0, -0.01600000075995922, 0.0, 0.0, 0.0, 0.0, 0.0, 0.0, 1.740484300119059E9, 0.0, 2025-02-25 11:51:40.119
9.0, 297.9578294698149, 258.90018428256735, 14.146171582397074, 675.1379597010091, 0.0, -0.01600000075995922, 0.0, 0.0, 0.0, 0.0, 0.0, 0.0, 1.7404843001193223E9, 0.0, 2025-02-25 11:51:40.119
9.0, 70.19605221832171, 477.3589603942819, 6.838407068978995, 457.87782152509317, 0.0, -0.01600000075995922, 0.0, 0.0, 0.0, 0.0, 0.0, 0.0, 1.740484300119416E9, 0.0, 2025-02-25 11:51:40.119
10.0, -166.0029393332079, 636.5852010077797, 10.899938420858234, 695.799037006218, 0.0, -0.01600000075995922, 0.5120000243186951, 0.0, 0.0, 0.0, 0.0, 0.0, 1.74048430012011E9, 0.0, 2025-02-25 11:51:40.120
10.0, 65.66703337198123, 415.37759842863306, 13.940477084834129, 913.070394882001, 0.0, -0.01600000075995922, 0.5120000243186951, 0.0, 0.0, 0.0, 0.0, 0.0, 1.7404843001202333E9, 0.0, 2025-02-25 11:51:40.120
11.0, 295.38103840034455, 252.59471295727417, 11.266448616515845, 671.6561128422618, 0.0, 0.0, 0.5120000243186951, 0.0, 0.0, 0.0, 0.0, 0.0, 1.740484300120428E9, 0.0, 2025-02-25 11:51:40.120
11.0, 75.24491715850309, 487.8531196699478, 10.368872627150267, 469.47899118764326, 0.0, 0.0, 0.5120000243186951, 0.0, 0.0, 0.0, 0.0, 0.0, 1.7404843001205049E9, 0.0, 2025-02-25 11:51:40.120
12.0, -150.8077258132398, 645.4712033024989, 10.540908025112003, 711.0353894256987, 0.0, 0.0, 0.5120000243186951, 0.0, 0.0, 0.0, 0.0, 0.0, 1.7404843001488192E9, 0.0, 2025-02-25 11:51:40.148
12.0, 66.97973825642839, 409.408718099352, 10.727903022896498, 913.7286172742024, 0.0, 0.0, 0.5120000243186951, 0.0, 0.0, 0.0, 0.0, 0.0, 1.7404843001489213E9, 0.0, 2025-02-25 11:51:40.148
13.0, 294.2441088138148, 257.97268909355626, 13.585186589043587, 672.172219036147, 0.0, 0.0, 0.5120000243186951, 0.0, 0.0, 0.0, 0.0, 0.0, 1.740484300149515E9, 0.0, 2025-02-25 11:51:40.149
13.0, 75.22995755868033, 485.82609389396384, 14.30698728049174, 457.4664325299673, 0.0, 0.0, 0.5120000243186951, 0.0, 0.0, 0.0, 0.0, 0.0, 1.7404843001496289E9, 0.0, 2025-02-25 11:51:40.149
14.0, -157.98085392825305, 645.2468093051575, 12.67639089981094, 215.52295464649796, 0.0, 0.0, 0.5120000243186951, 0.0, 0.0, 0.0, 0.0, 0.0, 1.740484300178901E9, 0.0, 2025-02-25 11:51:40.178
14.0, 67.44348585093394, 419.5849858787842, 12.156544805970043, 439.6645087408833, 0.0, 0.0, 0.5120000243186951, 0.0, 0.0, 0.0, 0.0, 0.0, 1.740484300179002E9, 0.0, 2025-02-25 11:51:40.179
15.0, 304.1885027959943, 258.19334319094196, 12.926964196842164, 681.6678250236437, 0.0, 0.0, 0.5120000243186951, 0.0, 0.0, 0.0, 0.0, 0.0, 1.740484300179238E9, 0.0, 2025-02-25 11:51:40.179
15.0, 69.32465552864596, 476.4314652052708, 10.017322031315416, 460.55184999341145, 0.0, 0.0, 0.5120000243186951, 0.0, 0.0, 0.0, 0.0, 0.0, 1.7404843001792915E9, 0.0, 2025-02-25 11:51:40.179
16.0, -157.704101331532, 640.5943737602793, 12.107926106546074, 227.02314701024443, 0.0, 0.0, 0.5120000243186951, 0.0, 0.0, 0.0, 0.0, 0.0, 1.7404843001805456E9, 0.0, 2025-02-25 11:51:40.180
16.0, 76.75583674060181, 423.7026157299988, 10.798961122054607, 441.28762532165274, 0.0, 0.0, 0.5120000243186951, 0.0, 0.0, 0.0, 0.0, 0.0, 1.7404843001806216E9, 0.0, 2025-02-25 11:51:40.180
17.0, 294.169310814701, 251.53632126981393, 13.140138494316489, 670.9791909502819, 0.0, 0.0, 0.5120000243186951, 0.0, 0.0, 0.0, 0.0, 0.0, 1.740484300180854E9, 0.0, 2025-02-25 11:51:40.180
17.0, 65.25938427681103, 466.7862632195465, 13.91803768509999, 458.494905017782, 0.0, 0.0, 0.5120000243186951, 0.0, 0.0, 0.0, 0.0, 0.0, 1.7404843001809468E9, 0.0, 2025-02-25 11:51:40.180
18.0, -158.69517481978983, 632.504970156122, 10.604486324358732, 221.45069607626647, 0.0, 0.0, 0.5120000243186951, 0.0, 0.0, 0.0, 0.0, 0.0, 1.7404843002093937E9, 0.0, 2025-02-25 11:51:40.209
18.0, 81.74860318144783, 419.86173847550526, 12.365979203488678, 449.4518269249238, 0.0, 0.0, 0.5120000243186951, 0.0, 0.0, 0.0, 0.0, 0.0, 1.7404843002094865E9, 0.0, 2025-02-25 11:51:40.209
19.0, 316.8929429454729, 264.7344282134436, 14.449103478807956, 694.3685252731666, 0.0, 0.0, 0.5120000243186951, 0.0, 0.0, 0.0, 0.0, 0.0, 1.7404843002096107E9, 0.0, 2025-02-25 11:51:40.209
19.0, 84.3553134505637, 489.56225394969806, 7.635005759540945, 480.41445865808055, 0.0, 0.0, 0.5120000243186951, 0.0, 0.0, 0.0, 0.0, 0.0, 1.740484300209705E9, 0.0, 2025-02-25 11:51:40.209
20.0, -127.67270468734205, 665.4796680654399, 13.07656019506976, 257.21161945257336, 0.0, 0.0, 0.7520000357180834, 0.0, 0.0, 0.0, 0.0, 0.0, 1.7404843002394097E9, 0.0, 2025-02-25 11:51:40.239
20.0, -358.4993299525231, 456.7147126388736, 14.437883778940886, 499.71982222935185, 0.0, 0.0, 0.7520000357180834, 0.0, 0.0, 0.0, 0.0, 0.0, 1.7404843002395372E9, 0.0, 2025-02-25 11:51:40.239
21.0, -135.1618543486111, 294.3095570630394, 10.28659482812509, 732.2537118243054, 0.0, 0.0, 0.7520000357180834, 0.0, 0.0, 0.0, 0.0, 0.0, 1.7404843002397747E9, 0.0, 2025-02-25 11:51:40.239
21.0, -359.5315423402935, 524.2386063388549, 10.892458620946854, 523.8085178439505, 0.0, 0.0, 0.7520000357180834, 0.0, 0.0, 0.0, 0.0, 0.0, 1.7404843002398667E9, 0.0, 2025-02-25 11:51:40.239
22.0, -586.5640391004272, 684.6990139377303, 12.418337802868336, 768.6747275427915, 0.0, 0.0, 0.7520000357180834, 0.0, 0.0, 0.0, 0.0, 0.0, 1.7404843002401867E9, 0.0, 2025-02-25 11:51:40.240
22.0, -368.86259272973984, 461.4569057826884, 14.916590973269194, 981.140313975513, 0.0, 0.0, 0.7520000357180834, 0.0, 0.0, 0.0, 0.0, 0.0, 1.7404843002402744E9, 0.0, 2025-02-25 11:51:40.240
23.0, -171.89889161335304, 273.5568522089161, 12.500615601893514, 1184.458105116617, 0.0, 0.0, 0.7520000357180834, 0.0, 0.0, 0.0, 0.0, 0.0, 1.7404843002405188E9, 0.0, 2025-02-25 11:51:40.240
23.0, 62.398360810708255, 478.93345827562734, 8.22590995253995, 950.723707635887, 0.0, 0.0, 0.7520000357180834, 0.0, 0.0, 0.0, 0.0, 0.0, 1.7404843002406564E9, 0.0, 2025-02-25 11:51:40.240
24.0, -146.00195437017828, 647.846039774362, 6.273682175669819, 722.789894986432, 0.0, 0.0, 0.7520000357180834, 0.0, 0.0, 0.0, 0.0, 0.0, 1.74048430026903E9, 0.0, 2025-02-25 11:51:40.269
24.0, 88.18497100519016, 428.56074577244, 15.675790664274246, 947.7691866708919, 0.0, 0.0, 0.7520000357180834, 0.0, 0.0, 0.0, 0.0, 0.0, 1.7404843002691505E9, 0.0, 2025-02-25 11:51:40.269
25.0, 291.2073100497946, 248.43968410650268, 12.859645997639745, 1166.1400751336478, 0.0, 0.0, 0.7520000357180834, 0.0, 0.0, 0.0, 0.0, 0.0, 1.7404843002692704E9, 0.0, 2025-02-25 11:51:40.269
25.0, 528.3356667403132, 453.8723886725493, 11.50580221368, 923.863746154122, 0.0, 0.0, 0.7520000357180834, 0.0, 0.0, 0.0, 0.0, 0.0, 1.7404843002693236E9, 0.0, 2025-02-25 11:51:40.269
26.0, 308.25564399780706, 627.8001760118641, 11.423524414654821, 691.2026999606751, 0.0, 0.0, 0.7520000357180834, 0.0, 0.0, 0.0, 0.0, 0.0, 1.7404843002992165E9, 0.0, 2025-02-25 11:51:40.299
26.0, 80.91834539128467, 430.43069575028494, 15.021308172028512, 447.5968365469016, 0.0, 0.0, 0.7520000357180834, 0.0, 0.0, 0.0, 0.0, 0.0, 1.740484300299293E9, 0.0, 2025-02-25 11:51:40.299
27.0, 279.1311730928719, 247.8375602136366, 13.966656384523958, 662.1231078552082, 0.0, 0.0, 0.7520000357180834, 0.0, 0.0, 0.0, 0.0, 0.0, 1.740484300299369E9, 0.0, 2025-02-25 11:51:40.299
27.0, 41.32402456039563, 455.8320962493308, 16.494828754570335, 433.4525349144824, 0.0, 0.0, 0.7520000357180834, 0.0, 0.0, 0.0, 0.0, 0.0, 1.74048430029959E9, 0.0, 2025-02-25 11:51:40.299
28.0, -144.37509788945317, 656.1261782762595, 9.83406693348661, 237.4836471863091, 0.0, 0.0, 0.7520000357180834, 0.0, 0.0, 0.0, 0.0, 0.0, 1.7404843002997425E9, 0.0, 2025-02-25 11:51:40.299
28.0, -372.01532839238644, 460.7949434905313, 14.019014983903617, 477.78904888918623, 0.0, 0.0, 0.7520000357180834, 0.0, 0.0, 0.0, 0.0, 0.0, 1.7404843002998807E9, 0.0, 2025-02-25 11:51:40.299
29.0, -166.56205437658355, 275.02289299154654, 12.30614080419764, 697.438983136788, 0.0, 0.0, 0.7520000357180834, 0.0, 0.0, 0.0, 0.0, 0.0, 1.7404843003005366E9, 0.0, 2025-02-25 11:51:40.300
29.0, 71.01135040866211, 484.5507880090736, 8.24834935227409, 457.6534275277518, 0.0, 0.0, 0.7520000357180834, 0.0, 0.0, 0.0, 0.0, 0.0, 1.7404843003006284E9, 0.0, 2025-02-25 11:51:40.300
30.0, -128.71987667493522, 665.1393371694721, 9.763008834328502, 242.81300462316722, 0.0, 0.0, 0.8800000417977571, 0.0, 0.0, 0.0, 0.0, 0.0, 1.7404843003289611E9, 0.0, 2025-02-25 11:51:40.328
30.0, 101.22600215068087, 437.3682101680897, 14.796914174687117, 461.6925194798969, 0.0, 0.0, 0.8800000417977571, 0.0, 0.0, 0.0, 0.0, 0.0, 1.740484300329111E9, 0.0, 2025-02-25 11:51:40.329
31.0, 339.0855092825368, 289.91891451505944, 11.984509408008307, 705.3114725435153, 0.0, 0.0, 0.8800000417977571, 0.0, 0.0, 0.0, 0.0, 0.0, 1.7404843003292053E9, 0.0, 2025-02-25 11:51:40.329
31.0, 111.54064622847363, 525.0613843291067, 10.540908025112003, 504.7425078698434, 0.0, 0.0, 0.8800000417977571, 0.0, 0.0, 0.0, 0.0, 0.0, 1.7404843003292856E9, 0.0, 2025-02-25 11:51:40.329
32.0, -81.99730652850121, 720.860106609296, 14.176090782042593, 299.83151934761554, -0.01600000075995922, 0.0, 0.8800000417977571, 0.0, 0.0, 0.0, 0.0, 0.0, 1.74048430035918E9, 0.0, 2025-02-25 11:51:40.359
32.0, -318.0822311313823, 505.46430856129155, 16.35645245620981, 534.3699953188188, -0.01600000075995922, 0.0, 0.8800000417977571, 0.0, 0.0, 0.0, 0.0, 0.0, 1.740484300359279E9, 0.0, 2025-02-25 11:51:40.359
33.0, -152.78426293982193, 290.62575560668483, 9.299261239822954, 717.2529731020331, -0.01600000075995922, 0.0, 0.8800000417977571, 0.0, 0.0, 0.0, 0.0, 0.0, 1.7404843003594692E9, 0.0, 2025-02-25 11:51:40.359
33.0, 63.37073479918763, 480.29852175945416, 14.172350882086903, 945.3270319998264, -0.01600000075995922, 0.0, 0.8800000417977571, 0.0, 0.0, 0.0, 0.0, 0.0, 1.740484300359573E9, 0.0, 2025-02-25 11:51:40.359
34.0, -156.3726969473064, 650.1685176468454, 9.8752058329992, 711.3121420224197, -0.01600000075995922, 0.0, 0.8800000417977571, 0.0, 0.0, 0.0, 0.0, 0.0, 1.740484300359975E9, 0.0, 2025-02-25 11:51:40.359
34.0, 73.33756818110123, 414.04245414445177, 12.27248170459643, 916.4288250422105, -0.01600000075995922, 0.0, 0.8800000417977571, 0.0, 0.0, 0.0, 0.0, 0.0, 1.74048430036003E9, 0.0, 2025-02-25 11:51:40.360
35.0, 242.95886072143912, 199.91448218142614, 10.727903022896498, 1099.382860924583, -0.01600000075995922, 0.0, 0.8800000417977571, 0.0, 0.0, 0.0, 0.0, 0.0, 1.7404843003605294E9, 0.0, 2025-02-25 11:51:40.360
35.0, 469.82867183350027, 398.9856169228442, 11.244009216781706, 861.7552275899798, -0.01600000075995922, 0.0, 0.8800000417977571, 0.0, 0.0, 0.0, 0.0, 0.0, 1.740484300360627E9, 0.0, 2025-02-25 11:51:40.360
36.0, 294.5975293596275, 612.8742352887057, 8.745756046380848, 675.0538119520061, -0.01600000075995922, 0.0, 0.8800000417977571, 0.0, 0.0, 0.0, 0.0, 0.0, 1.740484300389109E9, 0.0, 2025-02-25 11:51:40.389
36.0, 79.02595601370558, 416.34997241711244, 12.941923796664923, 442.8322040033527, -0.01600000075995922, 0.0, 0.8800000417977571, 0.0, 0.0, 0.0, 0.0, 0.0, 1.7404843003891811E9, 0.0, 2025-02-25 11:51:40.389
37.0, 269.8412616029382, 226.03768337192014, 12.69883029954508, 640.356890113093, -0.01600000075995922, 0.0, 0.8800000417977571, 0.0, 0.0, 0.0, 0.0, 0.0, 1.740484300389348E9, 0.0, 2025-02-25 11:51:40.389
37.0, 488.02702501788735, 421.57835255516693, 11.06823391886428, 875.3235846292228, -0.01600000075995922, 0.0, 0.8800000417977571, 0.0, 0.0, 0.0, 0.0, 0.0, 1.7404843003895233E9, 0.0, 2025-02-25 11:51:40.389
38.0, 309.14574018726125, 629.6439466900192, 10.368872627150267, 691.2812378597446, -0.01600000075995922, 0.0, 0.8800000417977571, 0.0, 0.0, 0.0, 0.0, 0.0, 1.7404843004196649E9, 0.0, 2025-02-25 11:51:40.419
38.0, 87.22381671657786, 427.5846318840049, 15.406517867464572, 449.1675945282914, -0.01600000075995922, 0.0, 0.8800000417977571, 0.0, 0.0, 0.0, 0.0, 0.0, 1.740484300419788E9, 0.0, 2025-02-25 11:51:40.419
39.0, 272.7995224678889, 232.7620234922506, 7.9902962553314865, 645.2000605557114, -0.01600000075995922, 0.0, 0.8800000417977571, 0.0, 0.0, 0.0, 0.0, 0.0, 1.7404843004200168E9, 0.0, 2025-02-25 11:51:40.420
39.0, 505.48487801104784, 442.99301970144734, 13.49168909015134, 408.5485411095433, -0.01600000075995922, 0.0, 0.8800000417977571, 0.0, 0.0, 0.0, 0.0, 0.0, 1.740484300420127E9, 0.0, 2025-02-25 11:51:40.420
40.0, 343.7360748774372, 667.8021459379233, 6.63271257141605, 236.9264020929113, -0.01600000075995922, 0.0, 0.944000044837594, 0.0, 0.0, 0.0, 0.0, 0.0, 1.7404843004203389E9, 0.0, 2025-02-25 11:51:40.420
40.0, 144.04411674337462, 481.90293884044513, 13.51786838984117, 16.04791070986539, -0.01600000075995922, 0.0, 0.944000044837594, 0.0, 0.0, 0.0, 0.0, 0.0, 1.7404843004204476E9, 0.0, 2025-02-25 11:51:40.420
41.0, 305.31047278270125, 265.549726403784, 13.805840686429292, 187.43069612933323, -0.01600000075995922, 0.0, 0.944000044837594, 0.0, 0.0, 0.0, 0.0, 0.0, 1.740484300420614E9, 0.0, 2025-02-25 11:51:40.420
41.0, 528.1898106420413, 463.2670173612423, 9.935044232290238, 428.31765227532014, -0.01600000075995922, 0.0, 0.944000044837594, 0.0, 0.0, 0.0, 0.0, 0.0, 1.740484300420699E9, 0.0, 2025-02-25 11:51:40.420
42.0, 363.02273894893005, 678.3411840130575, 9.467556737829, 253.12764870095998, -0.01600000075995922, 0.0, 0.944000044837594, 0.0, 0.0, 0.0, 0.0, 0.0, 1.740484300448784E9, 0.0, 2025-02-25 11:51:40.448
42.0, 160.2453633514233, 493.036621008534, 13.551527489442378, 28.99170445650816, -0.01600000075995922, 0.0, 0.944000044837594, 0.0, 0.0, 0.0, 0.0, 0.0, 1.7404843004489539E9, 0.0, 2025-02-25 11:51:40.448
43.0, 338.7975369859487, 290.165747912135, 10.383832226973027, 214.44399350928143, -0.01600000075995922, 0.0, 0.944000044837594, 0.0, 0.0, 0.0, 0.0, 0.0, 1.7404843004492104E9, 0.0, 2025-02-25 11:51:40.449
43.0, 539.9106571031734, 466.30381612526253, 12.560454001184553, 438.6397761530243, -0.01600000075995922, 0.0, 0.944000044837594, 0.0, 0.0, 0.0, 0.0, 0.0, 1.7404843004492717E9, 0.0, 2025-02-25 11:51:40.449
44.0, 359.8550436864607, 671.9683944885619, 12.27996150450781, 248.93896075058728, -0.01600000075995922, 0.0, 0.944000044837594, 0.0, 0.0, 0.0, 0.0, 0.0, 1.7404843004789565E9, 0.0, 2025-02-25 11:51:40.478
44.0, 142.80994975799695, 470.6495798737742, 13.05786069529131, 10.647495173849165, -0.01600000075995922, 0.0, 0.944000044837594, 0.0, 0.0, 0.0, 0.0, 0.0, 1.740484300479027E9, 0.0, 2025-02-25 11:51:40.479
45.0, 305.216975283809, 261.2937202542089, 10.6905040233396, 191.41368958214298, -0.01600000075995922, 0.0, 0.944000044837594, 0.0, 0.0, 0.0, 0.0, 0.0, 1.7404843004792314E9, 0.0, 2025-02-25 11:51:40.479
45.0, 521.4205917222425, 454.36231556674466, 11.928410908672959, 425.6324041071348, -0.01600000075995922, 0.0, 0.944000044837594, 0.0, 0.0, 0.0, 0.0, 0.0, 1.7404843004793613E9, 0.0, 2025-02-25 11:51:40.479
46.0, 353.24290056480095, 674.9640543530695, 12.122885706368834, 245.86476298701018, -0.01600000075995922, 0.0, 0.944000044837594, 0.0, 0.0, 0.0, 0.0, 0.0, 1.7404843004802375E9, 0.0, 2025-02-25 11:51:40.480
46.0, 147.48482470260933, 480.27234245976433, 9.680731035303324, 16.54905730392784, -0.01600000075995922, 0.0, 0.944000044837594, 0.0, 0.0, 0.0, 0.0, 0.0, 1.7404843004804144E9, 0.0, 2025-02-25 11:51:40.480
47.0, 312.75661359447986, 269.42052285792306, 15.354159268084913, 202.4089954518713, -0.01600000075995922, 0.0, 0.944000044837594, 0.0, 0.0, 0.0, 0.0, 0.0, 1.7404843004807084E9, 0.0, 2025-02-25 11:51:40.480
47.0, 497.70588610321283, 437.9740739609115, 13.600146188866347, 402.2468096842058, -0.01600000075995922, 0.0, 0.944000044837594, 0.0, 0.0, 0.0, 0.0, 0.0, 1.7404843004808254E9, 0.0, 2025-02-25 11:51:40.480
48.0, 317.2164442916401, 645.7778750988655, 10.024801831226796, 219.13569800369442, -0.01600000075995922, 0.0, 0.944000044837594, 0.0, 0.0, 0.0, 0.0, 0.0, 1.740484300508787E9, 0.0, 2025-02-25 11:51:40.508
48.0, 115.61339728021994, 458.8950743130408, 13.772181586828083, -13.429980740882456, -0.01600000075995922, 0.0, 0.944000044837594, 0.0, 0.0, 0.0, 0.0, 0.0, 1.7404843005089233E9, 0.0, 2025-02-25 11:51:40.508
49.0, 277.66513231024146, 231.6101343058981, 14.639838376548141, 157.48157728416845, -0.01600000075995922, 0.0, 0.944000044837594, 0.0, 0.0, 0.0, 0.0, 0.0, 1.740484300509236E9, 0.0, 2025-02-25 11:51:40.509
49.0, 473.94630168471485, 408.0548743153922, 10.709203523118049, 369.39926837338135, -0.01600000075995922, 0.0, 0.944000044837594, 0.0, 0.0, 0.0, 0.0, 0.0, 1.7404843005093443E9, 0.0, 2025-02-25 11:51:40.509
50.0, 299.32850280357525, 628.8548277993686, 10.024801831226796, 192.67590581718832, -0.01600000075995922, 0.0, 0.9600000455975533, 0.0, 0.0, 0.0, 0.0, 0.0, 1.7404843005391204E9, 0.0, 2025-02-25 11:51:40.539
50.0, 110.6617697388865, 458.1994529212825, 16.479869154747576, -15.31863021850586, -0.01600000075995922, 0.0, 0.9600000455975533, 0.0, 0.0, 0.0, 0.0, 0.0, 1.7404843005394316E9, 0.0, 2025-02-25 11:51:40.539
51.0, 272.73968406859785, 235.2453170628287, 11.015875319484621, 155.67146570561454, -0.01600000075995922, 0.0, 0.9600000455975533, 0.0, 0.0, 0.0, 0.0, 0.0, 1.740484300539554E9, 0.0, 2025-02-25 11:51:40.539
51.0, 478.0003532366827, 425.60622480744496, 12.941923796664923, 377.7579447743483, -0.01600000075995922, 0.0, 0.9600000455975533, 0.0, 0.0, 0.0, 0.0, 0.0, 1.740484300540039E9, 0.0, 2025-02-25 11:51:40.540
52.0, 315.3988529131748, 647.7450624755584, 12.321100404020399, 207.88607893697917, -0.01600000075995922, 0.0, 0.9600000455975533, 0.0, 0.0, 0.0, 0.0, 0.0, 1.7404843005408676E9, 0.0, 2025-02-25 11:51:40.540
52.0, 131.64634839026257, 472.03334285737947, 13.248595593031496, -0.2543131969869137, -0.01600000075995922, 0.0, 0.9600000455975533, 0.0, 0.0, 0.0, 0.0, 0.0, 1.7404843005409634E9, 0.0, 2025-02-25 11:51:40.540
53.0, 300.0222542453557, 253.58952634548768, 13.686163887847215, 177.71443604445085, -0.01600000075995922, 0.0, 0.9600000455975533, 0.0, 0.0, 0.0, 0.0, 0.0, 1.7404843005412018E9, 0.0, 2025-02-25 11:51:40.541
53.0, 500.4210534710437, 439.64954914106056, 9.654551735613495, 395.2793760667555, -0.01600000075995922, 0.0, 0.9600000455975533, 0.0, 0.0, 0.0, 0.0, 0.0, 1.7404843005412986E9, 0.0, 2025-02-25 11:51:40.541
54.0, 356.27969932882115, 195.30879538599402, 12.556714101228863, 240.13897615484893, -0.01600000075995922, 0.0, 0.9600000455975533, 0.0, 0.0, 0.0, 0.0, 0.0, 1.7404843005690153E9, 0.0, 2025-02-25 11:51:40.569
54.0, 169.66243143985048, 18.284370883367956, 8.536321648862213, 45.9858098551631, -0.01600000075995922, 0.0, 0.9600000455975533, 0.0, 0.0, 0.0, 0.0, 0.0, 1.7404843005693655E9, 0.0, 2025-02-25 11:51:40.569
55.0, 327.8545897156, -210.33571340795606, 13.678684087935835, 215.3789684982039, -0.01600000075995922, 0.0, 0.9600000455975533, 0.0, 0.0, 0.0, 0.0, 0.0, 1.7404843005694342E9, 0.0, 2025-02-25 11:51:40.569
55.0, 518.0659014619887, -35.44303188007325, 7.0628010663203895, 418.4480562922545, -0.01600000075995922, 0.0, 0.9600000455975533, 0.0, 0.0, 0.0, 0.0, 0.0, 1.740484300569484E9, 0.0, 2025-02-25 11:51:40.569
56.0, 359.39877589186653, 189.10430135950446, 9.87146593304351, 250.07589033711702, -0.01600000075995922, 0.0, 0.9600000455975533, 0.0, 0.0, 0.0, 0.0, 0.0, 1.7404843005987525E9, 0.0, 2025-02-25 11:51:40.598
56.0, 183.63843757426366, 22.450619434006512, 11.50206231372431, 49.44895721413195, -0.01600000075995922, 0.0, 0.9600000455975533, 0.0, 0.0, 0.0, 0.0, 0.0, 1.7404843005988677E9, 0.0, 2025-02-25 11:51:40.598
57.0, 362.19435110874474, -192.84794121515006, 12.059307407122105, 232.39925319654867, -0.01600000075995922, 0.0, 0.9600000455975533, 0.0, 0.0, 0.0, 0.0, 0.0, 1.7404843005993116E9, 0.0, 2025-02-25 11:51:40.599
57.0, 547.5587525125593, -20.8985609523952, 10.817660621833056, 431.3432313394733, -0.01600000075995922, 0.0, 0.9600000455975533, 0.0, 0.0, 0.0, 0.0, 0.0, 1.7404843005994046E9, 0.0, 2025-02-25 11:51:40.599
58.0, 381.2061325334944, 202.32484770286828, 7.870619456749409, 258.0568368425593, -0.01600000075995922, 0.0, 0.9600000455975533, 0.0, 0.0, 0.0, 0.0, 0.0, 1.7404843006007476E9, 0.0, 2025-02-25 11:51:40.600
58.0, 208.153481783811, 41.04166211374104, 11.169211217667907, 68.38033078983426, -0.01600000075995922, 0.0, 0.9600000455975533, 0.0, 0.0, 0.0, 0.0, 0.0, 1.74048430060086E9, 0.0, 2025-02-25 11:51:40.600
59.0, 384.6561902426183, -171.0443244734779, 12.844686397816986, 251.547540969681, -0.01600000075995922, 0.0, 0.9600000455975533, 0.0, 0.0, 0.0, 0.0, 0.0, 1.7404843006012514E9, 0.0, 2025-02-25 11:51:40.601
59.0, 542.5285870721564, -23.72592531889677, 13.85819928580895, 430.20630175294355, -0.01600000075995922, 0.0, 0.9600000455975533, 0.0, 0.0, 0.0, 0.0, 0.0, 1.7404843006013544E9, 0.0, 2025-02-25 11:51:40.601
60.0, 379.77001095050946, 202.60534019954503, 13.667464388068765, 261.5050246017054, -0.01600000075995922, 0.0, 0.9760000463575125, 0.0, 0.0, 0.0, 0.0, 0.0, 1.7404843006288373E9, 0.0, 2025-02-25 11:51:40.628
60.0, 207.85054988740012, 38.22177754715085, 14.2845478807576, 70.4784146649763, -0.01600000075995922, 0.0, 0.9760000463575125, 0.0, 0.0, 0.0, 0.0, 0.0, 1.7404843006290233E9, 0.0, 2025-02-25 11:51:40.629
61.0, 352.69874512124807, 281.75845281174406, 10.597006524447352, 227.97121164901182, -0.01600000075995922, 0.0, 0.9760000463575125, 0.0, 0.0, 0.0, 0.0, 0.0, 1.74048430062932E9, 0.0, 2025-02-25 11:51:40.629
61.0, 521.5627079205588, 445.4837930719368, 12.975582896266133, 412.08274656767026, -0.01600000075995922, 0.0, 0.9760000463575125, 0.0, 0.0, 0.0, 0.0, 0.0, 1.740484300629419E9, 0.0, 2025-02-25 11:51:40.629
62.0, 357.61484361300245, 668.879237125162, 9.003809143323451, 237.71926088351756, -0.01600000075995922, 0.0, 0.9760000463575125, 0.0, 0.0, 0.0, 0.0, 0.0, 1.7404843006591337E9, 0.0, 2025-02-25 11:51:40.659
62.0, 187.17264303239062, 508.35525122703984, 14.897891473490745, 49.4676567139104, -0.01600000075995922, 0.0, 0.9760000463575125, 0.0, 0.0, 0.0, 0.0, 0.0, 1.7404843006592376E9, 0.0, 2025-02-25 11:51:40.659
63.0, 346.63262739311904, 286.9307344504632, 8.26704885205254, 227.00257756048813, -0.01600000075995922, 0.0, 0.9760000463575125, 0.0, 0.0, 0.0, 0.0, 0.0, 1.740484300659405E9, 0.0, 2025-02-25 11:51:40.659
63.0, 507.99435088131577, 440.7116807284765, 12.354759503621608, 403.2416230724193, -0.01600000075995922, 0.0, 0.9760000463575125, 0.0, 0.0, 0.0, 0.0, 0.0, 1.7404843006594646E9, 0.0, 2025-02-25 11:51:40.659
64.0, 358.72933379979804, 673.8832232658751, 9.718130034860224, 242.62600962538272, -0.01600000075995922, 0.0, 0.9760000463575125, 0.0, 0.0, 0.0, 0.0, 0.0, 1.7404843006602173E9, 0.0, 2025-02-25 11:51:40.660
64.0, 216.0858095898293, 534.2877175197937, 13.47672949032858, 76.53331269323826, -0.01600000075995922, 0.0, 0.9760000463575125, 0.0, 0.0, 0.0, 0.0, 0.0, 1.7404843006603868E9, 0.0, 2025-02-25 11:51:40.660
65.0, 369.59561312105507, 313.25963013852015, 15.971242760773748, 240.48865680070594, -0.01600000075995922, 0.0, 0.9760000463575125, 0.0, 0.0, 0.0, 0.0, 0.0, 1.7404843006605392E9, 0.0, 2025-02-25 11:51:40.660
65.0, 530.0709803197533, 469.33313508937135, 12.30240090424195, 417.4121040045284, -0.01600000075995922, 0.0, 0.9760000463575125, 0.0, 0.0, 0.0, 0.0, 0.0, 1.7404843006606143E9, 0.0, 2025-02-25 11:51:40.660
66.0, 381.2023926335387, 704.9804913974367, 5.981969979126006, 268.92872601374984, -0.01600000075995922, 0.0, 0.9760000463575125, 0.0, 0.0, 0.0, 0.0, 0.0, 1.740484300689129E9, 0.0, 2025-02-25 11:51:40.689
66.0, 228.1245475471951, 551.4762977161445, 10.776521722320467, 87.28178516589105, -0.01600000075995922, 0.0, 0.9760000463575125, 0.0, 0.0, 0.0, 0.0, 0.0, 1.740484300689251E9, 0.0, 2025-02-25 11:51:40.689
67.0, 366.7757285544649, 309.88250047853217, 10.514728725422174, 235.25279686274007, -0.01600000075995922, 0.0, 0.9760000463575125, 0.0, 0.0, 0.0, 0.0, 0.0, 1.7404843006895046E9, 0.0, 2025-02-25 11:51:40.689
67.0, 519.4721038453281, 459.0110112116672, 6.946864167694002, 396.6855784500949, -0.01600000075995922, 0.0, 0.9760000463575125, 0.0, 0.0, 0.0, 0.0, 0.0, 1.740484300689581E9, 0.0, 2025-02-25 11:51:40.689
68.0, 354.53690594946966, 686.258552219253, 10.140738729853183, 238.47846057452261, -0.01600000075995922, 0.0, 0.9760000463575125, 0.0, 0.0, 0.0, 0.0, 0.0, 1.7404843007189724E9, 0.0, 2025-02-25 11:51:40.718
68.0, 189.67089620279148, 520.0686178882606, 16.966056148987263, 45.86613305658102, -0.01600000075995922, 0.0, 0.9760000463575125, 0.0, 0.0, 0.0, 0.0, 0.0, 1.7404843007191448E9, 0.0, 2025-02-25 11:51:40.719
69.0, 326.8859556270763, 289.9712731144391, 13.798360886517912, 198.91966879321262, -0.01600000075995922, 0.0, 0.9760000463575125, 0.0, 0.0, 0.0, 0.0, 0.0, 1.7404843007193208E9, 0.0, 2025-02-25 11:51:40.719
69.0, 490.708533286117, 429.86597085697576, 12.365979203488678, 377.32037647953257, -0.01600000075995922, 0.0, 0.9760000463575125, 0.0, 0.0, 0.0, 0.0, 0.0, 1.7404843007193775E9, 0.0, 2025-02-25 11:51:40.719
70.0, 359.20056119421497, 670.8763437015004, 9.86772603308782, 250.87248902767897, -0.01600000075995922, 0.0, 0.9760000463575125, 0.0, 0.0, 0.0, 0.0, 0.0, 1.7404843007197654E9, 0.0, 2025-02-25 11:51:40.719
70.0, 209.39886846905574, 508.38517042668536, 12.68387069972232, 88.23171975463629, -0.01600000075995922, 0.0, 0.9760000463575125, 0.0, 0.0, 0.0, 0.0, 0.0, 1.7404843007199E9, 0.0, 2025-02-25 11:51:40.719
71.0, 374.2480486659333, 264.71946861362085, 17.833712938707322, 272.9921273156069, -0.01600000075995922, 0.0, 0.9760000463575125, 0.0, 0.0, 0.0, 0.0, 0.0, 1.7404843007206523E9, 0.0, 2025-02-25 11:51:40.720
71.0, 531.196690206416, 406.27094203652814, 11.333766815718263, 457.4664325299673, -0.01600000075995922, 0.0, 0.9760000463575125, 0.0, 0.0, 0.0, 0.0, 0.0, 1.7404843007207413E9, 0.0, 2025-02-25 11:51:40.720
72.0, 398.89211942395195, 635.8895796160214, 9.553574436809868, 319.02842582017183, -0.01600000075995922, 0.0, 0.9760000463575125, 0.0, 0.0, 0.0, 0.0, 0.0, 1.7404843007489746E9, 0.0, 2025-02-25 11:51:40.748
72.0, 265.7479411014356, 493.20117660658434, 13.48046939028427, 172.13263536058366, -0.01600000075995922, 0.0, 0.9760000463575125, 0.0, 0.0, 0.0, 0.0, 0.0, 1.7404843007490973E9, 0.0, 2025-02-25 11:51:40.749
73.0, 407.8510497678071, 721.7258934490383, 12.410858002956957, 321.3976524421014, -0.01600000075995922, 0.0, 0.9760000463575125, 0.0, 0.0, 0.0, 0.0, 0.0, 1.7404843007492592E9, 0.0, 2025-02-25 11:51:40.749
73.0, 534.7308956645429, 854.660637374036, 11.782554810401052, 466.8274021190591, -0.01600000075995922, 0.0, 0.9760000463575125, 0.0, 0.0, 0.0, 0.0, 0.0, 1.740484300749364E9, 0.0, 2025-02-25 11:51:40.749
74.0, 385.8361286786385, 1097.5933187957853, 12.938183896709234, 305.2618540832773, -0.01600000075995922, 0.0, 0.9760000463575125, 0.0, 0.0, 0.0, 0.0, 0.0, 1.7404843007787971E9, 0.0, 2025-02-25 11:51:40.778
74.0, 249.84962638979778, 956.7524263644591, 13.843239685986191, 150.8488647127524, -0.01600000075995922, 0.0, 0.9760000463575125, 0.0, 0.0, 0.0, 0.0, 0.0, 1.740484300778906E9, 0.0, 2025-02-25 11:51:40.778
75.0, 377.09037263225764, 1192.8130416176282, 10.357652927283198, 288.8904420272447, -0.01600000075995922, 0.0, 0.9760000463575125, 0.0, 0.0, 0.0, 0.0, 0.0, 1.7404843007797694E9, 0.0, 2025-02-25 11:51:40.779
75.0, 510.1709726555273, 1336.2943034176715, 14.052674083504826, 435.8946895855479, -0.01600000075995922, 0.0, 0.9760000463575125, 0.0, 0.0, 0.0, 0.0, 0.0, 1.740484300779836E9, 0.0, 2025-02-25 11:51:40.779
76.0, 356.9192222212441, 1569.514464654494, 9.534874937031418, 274.37028044927865, -0.01600000075995922, 0.0, 0.9760000463575125, 0.0, 0.0, 0.0, 0.0, 0.0, 1.7404843007798927E9, 0.0, 2025-02-25 11:51:40.779
76.0, 218.92065375624225, 1422.1736261001788, 14.30698728049174, 110.80201598722488, -0.01600000075995922, 0.0, 0.9760000463575125, 0.0, 0.0, 0.0, 0.0, 0.0, 1.7404843007799397E9, 0.0, 2025-02-25 11:51:40.779
77.0, 336.69197331089526, 1660.2874464290217, 12.500615601893514, 242.41844517784193, -0.01600000075995922, 0.0, 0.9760000463575125, 0.0, 0.0, 0.0, 0.0, 0.0, 1.7404843007804916E9, 0.0, 2025-02-25 11:51:40.780
77.0, 461.50365453213453, 1786.6923250313848, 13.525348189752549, 382.17850652197376, -0.01600000075995922, 0.0, 0.9760000463575125, 0.0, 0.0, 0.0, 0.0, 0.0, 1.7404843007805843E9, 0.0, 2025-02-25 11:51:40.780
78.0, 322.6467790273018, 1550.3175581819378, 13.783401286695153, 241.06273144390434, -0.01600000075995922, 0.0, 0.9760000463575125, 0.0, 0.0, 0.0, 0.0, 0.0, 1.740484300808822E9, 0.0, 2025-02-25 11:51:40.808
78.0, 191.4847476813011, 1415.393187480513, 14.015275083947927, 85.49785288702697, -0.01600000075995922, 0.0, 0.9760000463575125, 0.0, 0.0, 0.0, 0.0, 0.0, 1.7404843008089554E9, 0.0, 2025-02-25 11:51:40.808
79.0, 322.79824497550726, 1656.895357169211, 12.448257002513856, 226.18353947019204, -0.01600000075995922, 0.0, 0.9760000463575125, 0.0, 0.0, 0.0, 0.0, 0.0, 1.7404843008091743E9, 0.0, 2025-02-25 11:51:40.809
79.0, 449.37889887578785, 1794.7331099361181, 11.995729107875377, 374.2723580156453, -0.01600000075995922, 0.0, 0.9760000463575125, 0.0, 0.0, 0.0, 0.0, 0.0, 1.7404843008092577E9, 0.0, 2025-02-25 11:51:40.809
80.0, 325.0216154991649, 1558.9903861791827, 9.224463240709156, 235.2584067126736, -0.01600000075995922, 0.0, 0.9920000471174717, 0.0, 0.0, 0.0, 0.0, 0.0, 1.740484300838771E9, 0.0, 2025-02-25 11:51:40.838
80.0, 194.4392686462961, 1430.0161963072605, 14.482762578409165, 88.56831075064838, -0.01600000075995922, 0.0, 0.9920000471174717, 0.0, 0.0, 0.0, 0.0, 0.0, 1.7404843008388824E9, 0.0, 2025-02-25 11:51:40.838
81.0, 326.6802611295134, 1665.5981043661013, 10.888718720991164, 221.96119242021814, -0.01600000075995922, -0.01600000075995922, 0.9920000471174717, 0.0, 0.0, 0.0, 0.0, 0.0, 1.74048430083922E9, 0.0, 2025-02-25 11:51:40.839
81.0, 448.6683178842068, 1792.6088467612863, 8.64103884762153, 358.76673279935494, -0.01600000075995922, -0.01600000075995922, 0.9920000471174717, 0.0, 0.0, 0.0, 0.0, 0.0, 1.7404843008395996E9, 0.0, 2025-02-25 11:51:40.839
82.0, 315.1707190158777, 1559.5738105722703, 9.822847233619541, 230.0749053740874, -0.01600000075995922, -0.01600000075995922, 0.9920000471174717, 0.0, 0.0, 0.0, 0.0, 0.0, 1.7404843008401103E9, 0.0, 2025-02-25 11:51:40.840
82.0, 196.52987272152677, 1436.3515868321992, 14.905371273402125, 85.17248159088194, -0.01600000075995922, -0.01600000075995922, 0.9920000471174717, 0.0, 0.0, 0.0, 0.0, 0.0, 1.7404843008401904E9, 0.0, 2025-02-25 11:51:40.840
83.0, 316.1487028542906, 1660.6539566246793, 13.772181586828083, 210.6031162547879, -0.01600000075995922, -0.01600000075995922, 0.9920000471174717, 0.0, 0.0, 0.0, 0.0, 0.0, 1.7404843008404584E9, 0.0, 2025-02-25 11:51:40.840
83.0, 436.44632482901216, 1789.1045605028048, 13.936737184878439, 343.2498878831975, -0.01600000075995922, -0.01600000075995922, 0.9920000471174717, 0.0, 0.0, 0.0, 0.0, 0.0, 1.7404843008405073E9, 0.0, 2025-02-25 11:51:40.840
84.0, 303.4984912541695, 1554.682021430228, 8.876652544829994, 207.93095773644745, -0.01600000075995922, -0.01600000075995922, 0.9920000471174717, 0.0, 0.0, 0.0, 0.0, 0.0, 1.7404843008688824E9, 0.0, 2025-02-25 11:51:40.868
84.0, 175.33585967263207, 1419.9072467270307, 14.542600977700204, 59.50180829502642, -0.01600000075995922, -0.01600000075995922, 0.9920000471174717, 0.0, 0.0, 0.0, 0.0, 0.0, 1.7404843008689897E9, 0.0, 2025-02-25 11:51:40.868
85.0, 301.5967521267012, 1653.4284699102864, 12.848426297772676, 197.0048400158994, -0.01600000075995922, -0.01600000075995922, 0.9920000471174717, 0.0, 0.0, 0.0, 0.0, 0.0, 1.740484300869308E9, 0.0, 2025-02-25 11:51:40.869
85.0, 423.48009168263525, 1784.639119955711, 11.363686015363783, 335.52699447469786, -0.01600000075995922, -0.01600000075995922, 0.9920000471174717, 0.0, 0.0, 0.0, 0.0, 0.0, 1.7404843008693926E9, 0.0, 2025-02-25 11:51:40.869
86.0, 314.5087567237206, 1570.2811441454105, 9.553574436809868, 221.90696387086064, -0.01600000075995922, -0.01600000075995922, 0.9920000471174717, 0.0, 0.0, 0.0, 0.0, 0.0, 1.7404843008993075E9, 0.0, 2025-02-25 11:51:40.899
86.0, 205.3036780175753, 1443.1843840512447, 13.420630990993232, 87.5248786630109, -0.01600000075995922, -0.01600000075995922, 0.9920000471174717, 0.0, 0.0, 0.0, 0.0, 0.0, 1.7404843008994188E9, 0.0, 2025-02-25 11:51:40.899
87.0, 317.7905189348385, 1678.747592610307, 14.112512482795864, 210.62929555447772, -0.01600000075995922, -0.01600000075995922, 0.9920000471174717, 0.0, 0.0, 0.0, 0.0, 0.0, 1.7404843008995728E9, 0.0, 2025-02-25 11:51:40.899
87.0, 423.67082658037543, 1794.602213437669, 9.05616774270311, 322.26156933186576, -0.01600000075995922, -0.01600000075995922, 0.9920000471174717, 0.0, 0.0, 0.0, 0.0, 0.0, 1.7404843008996785E9, 0.0, 2025-02-25 11:51:40.899
88.0, 287.68619424151257, 1559.4990125731565, 8.831773745361716, 189.47455145511776, -0.01600000075995922, -0.01600000075995922, 0.9920000471174717, 0.0, 0.0, 0.0, 0.0, 0.0, 1.7404843009298928E9, 0.0, 2025-02-25 11:51:40.929
88.0, 185.76270074909553, 1445.5255614235066, 11.670357811730355, 63.45114264823496, -0.01600000075995922, -0.01600000075995922, 0.9920000471174717, 0.0, 0.0, 0.0, 0.0, 0.0, 1.7404843009299583E9, 0.0, 2025-02-25 11:51:40.929
89.0, 307.8498648526147, 1669.835411015898, 14.071373583283275, 195.61359723238274, -0.01600000075995922, -0.01600000075995922, 0.9920000471174717, 0.0, 0.0, 0.0, 0.0, 0.0, 1.7404843009301577E9, 0.0, 2025-02-25 11:51:40.930
89.0, 400.6704418528825, 1770.7528714202344, 13.357052691746503, 310.5070637711324, -0.01600000075995922, -0.01600000075995922, 0.9920000471174717, 0.0, 0.0, 0.0, 0.0, 0.0, 1.7404843009302444E9, 0.0, 2025-02-25 11:51:40.930
90.0, 264.9663020106964, 1537.1119714383967, 8.700877246912569, 170.3748823814094, -0.01600000075995922, -0.01600000075995922, 0.9920000471174717, 0.0, 0.0, 0.0, 0.0, 0.0, 1.7404843009303756E9, 0.0, 2025-02-25 11:51:40.930
90.0, 164.00770270684734, 1424.4213059735484, 12.631512100342661, 44.085940677672625, -0.01600000075995922, -0.01600000075995922, 0.9920000471174717, 0.0, 0.0, 0.0, 0.0, 0.0, 1.7404843009304683E9, 0.0, 2025-02-25 11:51:40.930
91.0, 293.5522273220122, 1666.4657611558214, 16.33401305647567, 191.1107576857321, -0.01600000075995922, -0.01600000075995922, 0.9920000471174717, 0.0, 0.0, 0.0, 0.0, 0.0, 1.7404843009305513E9, 0.0, 2025-02-25 11:51:40.930
91.0, 406.36256958544254, 1787.7207975191996, 11.225309717003256, 319.29956856695935, -0.01600000075995922, -0.01600000075995922, 0.9920000471174717, 0.0, 0.0, 0.0, 0.0, 0.0, 1.7404843009305942E9, 0.0, 2025-02-25 11:51:40.930
92.0, 291.62056899489835, 1568.8936412618496, 12.444517102558166, 194.33268149755895, -0.01600000075995922, -0.01600000075995922, 0.9920000471174717, 0.0, 0.0, 0.0, 0.0, 0.0, 1.740484300931336E9, 0.0, 2025-02-25 11:51:40.931
92.0, 214.07000351371244, 1478.627415931318, 12.519315101671964, 93.68075399007648, -0.01600000075995922, -0.01600000075995922, 0.9920000471174717, 0.0, 0.0, 0.0, 0.0, 0.0, 1.740484300931428E9, 0.0, 2025-02-25 11:51:40.931
93.0, 356.15067278034985, 1718.1773578431457, 14.983909172471613, 241.34509389055893, -0.01600000075995922, -0.01600000075995922, 0.9920000471174717, 0.0, 0.0, 0.0, 0.0, 0.0, 1.7404843009587529E9, 0.0, 2025-02-25 11:51:40.958
93.0, 445.8708727173507, 1825.067438476719, 9.553574436809868, 350.46415489772335, -0.01600000075995922, -0.01600000075995922, 0.9920000471174717, 0.0, 0.0, 0.0, 0.0, 0.0, 1.740484300958827E9, 0.0, 2025-02-25 11:51:40.958
94.0, 321.67814493877813, 1602.2498089666478, 9.531135037075728, 223.60487845074385, -0.01600000075995922, -0.01600000075995922, 0.9920000471174717, 0.0, 0.0, 0.0, 0.0, 0.0, 1.740484300959521E9, 0.0, 2025-02-25 11:51:40.959
94.0, 248.98196960007772, 1511.1346263461746, 11.86483260942623, 123.45409753732383, -0.01600000075995922, -0.01600000075995922, 0.9920000471174717, 0.0, 0.0, 0.0, 0.0, 0.0, 1.7404843009598205E9, 0.0, 2025-02-25 11:51:40.959
95.0, 368.353966335766, 1732.044906878844, 14.213489781599492, 255.57167332200333, -0.01600000075995922, -0.01600000075995922, 0.9920000471174717, 0.0, 0.0, 0.0, 0.0, 0.0, 1.7404843009898012E9, 0.0, 2025-02-25 11:51:40.989
95.0, 457.24390848260373, 1835.9842064473778, 14.849272774066776, 354.73138074716553, -0.01600000075995922, -0.01600000075995922, 0.9920000471174717, 0.0, 0.0, 0.0, 0.0, 0.0, 1.740484300989879E9, 0.0, 2025-02-25 11:51:40.989
96.0, 322.92353162402287, 1598.4650302114896, 8.397945350501686, 207.212896944955, -0.01600000075995922, -0.01600000075995922, 0.9920000471174717, 0.0, 0.0, 0.0, 0.0, 0.0, 1.740484300990284E9, 0.0, 2025-02-25 11:51:40.990
96.0, 228.25544404564425, 1489.5217445022427, 18.155344334896654, 102.43211988639086, -0.01600000075995922, -0.01600000075995922, 0.9920000471174717, 0.0, 0.0, 0.0, 0.0, 0.0, 1.7404843009903772E9, 0.0, 2025-02-25 11:51:40.990
97.0, 346.247417697683, 1713.9550107931718, 10.073420530650765, 235.5744282589294, -0.01600000075995922, -0.01600000075995922, 0.9920000471174717, 0.0, 0.0, 0.0, 0.0, 0.0, 1.7404843009904552E9, 0.0, 2025-02-25 11:51:40.990
97.0, 432.2426772788167, 1820.9759879251942, 15.06618697149679, 336.29741386557, -0.01600000075995922, -0.01600000075995922, 0.9920000471174717, 0.0, 0.0, 0.0, 0.0, 0.0, 1.740484300990513E9, 0.0, 2025-02-25 11:51:40.990
98.0, 306.8344820146449, 1591.4265384948812, 12.496875701937824, 205.47758336551487, -0.01600000075995922, -0.01600000075995922, 0.9920000471174717, 0.0, 0.0, 0.0, 0.0, 0.0, 1.7404843009906206E9, 0.0, 2025-02-25 11:51:40.990
98.0, 245.15979184536263, 1510.4838837538846, 12.523055001627654, 120.798768568784, -0.01600000075995922, -0.01600000075995922, 0.9920000471174717, 0.0, 0.0, 0.0, 0.0, 0.0, 1.7404843009907007E9, 0.0, 2025-02-25 11:51:40.990
99.0, 379.2482949066907, 1742.3819903563708, 15.937583661172539, 262.8943974352442, -0.01600000075995922, -0.01600000075995922, 0.9920000471174717, 0.0, 0.0, 0.0, 0.0, 0.0, 1.7404843010202065E9, 0.0, 2025-02-25 11:51:41.020
99.0, 460.1086718486622, 1849.1075153918937, 9.748049234505743, 363.1274561476894, -0.01600000075995922, -0.01600000075995922, 0.9920000471174717, 0.0, 0.0, 0.0, 0.0, 0.0, 1.7404843010202887E9, 0.0, 2025-02-25 11:51:41.020
100.0, 341.05830650916323, 1626.5591586786322, 11.408564814832062, 239.88466295786202, -0.01600000075995922, -0.01600000075995922, 0.9920000471174717, 0.0, 0.0, 0.0, 0.0, 0.0, 1.7404843010204117E9, 0.0, 2025-02-25 11:51:41.020
100.0, 271.339091535192, 1543.2491472656839, 11.232789516914636, 148.851758136414, -0.01600000075995922, -0.01600000075995922, 0.9920000471174717, 0.0, 0.0, 0.0, 0.0, 0.0, 1.7404843010205014E9, 0.0, 2025-02-25 11:51:41.020
0.0, -97.31593674700707, -200.38009972590953, 12.588503250852227, -214.01577496435493, -0.01600000075995922, -0.01600000075995922, 0.9920000471174717, 0.0, 0.0, 0.0, 0.0, 0.0, 1.7404843010205736E9, 0.0, 2025-02-25 11:51:41.020
1.0, -38.24421694688499, -121.29617526289076, 15.883355111815035, -142.37799131311476, -0.01600000075995922, -0.01600000075995922, 0.9920000471174717, 0.0, 0.0, 0.0, 0.0, 0.0, 1.7404843010491E9, 0.0, 2025-02-25 11:51:41.049
1.0, -160.4286184492521, -350.3743972987868, 10.07529048062861, -275.42680218676105, -0.01600000075995922, -0.01600000075995922, 0.9920000471174717, 0.0, 0.0, 0.0, 0.0, 0.0, 1.740484301049216E9, 0.0, 2025-02-25 11:51:41.049
2.0, -243.41325856605545, -444.50393928354606, 8.594290098175406, -367.8883487912826, -0.01600000075995922, -0.01600000075995922, 0.9920000471174717, 0.0, 0.0, 0.0, 0.0, 0.0, 1.7404843010494173E9, 0.0, 2025-02-25 11:51:41.049
2.0, -114.684032141231, -213.63056526891887, 15.569203515537083, -229.93278917577118, -0.01600000075995922, -0.01600000075995922, 0.9920000471174717, 0.0, 0.0, 0.0, 0.0, 0.0, 1.7404843010495033E9, 0.0, 2025-02-25 11:51:41.049
3.0, -66.43558281287551, -132.46351653058082, 12.229472855105996, -161.23082698974758, -0.01600000075995922, -0.01600000075995922, 0.9920000471174717, 0.0, 0.0, 0.0, 0.0, 0.0, 1.7404843010501957E9, 0.0, 2025-02-25 11:51:41.050
3.0, -196.2568600247614, -368.9990990781225, 9.091696792282164, -298.32246971549466, -0.01600000075995922, -0.01600000075995922, 0.9920000471174717, 0.0, 0.0, 0.0, 0.0, 0.0, 1.7404843010503528E9, 0.0, 2025-02-25 11:51:41.050
4.0, -260.72151556098834, -457.44025323027745, 11.963939958252013, -385.8697877782397, -0.01600000075995922, -0.01600000075995922, 0.9920000471174717, 0.0, 0.0, 0.0, 0.0, 0.0, 1.7404843010789645E9, 0.0, 2025-02-25 11:51:41.078
4.0, -134.34842610824853, -217.4340435238555, 14.09194303303957, -249.3054709462449, -0.01600000075995922, -0.01600000075995922, 0.9920000471174717, 0.0, 0.0, 0.0, 0.0, 0.0, 1.7404843010790873E9, 0.0, 2025-02-25 11:51:41.079
5.0, -83.24269321374595, -137.96116946544498, 10.916767970658839, -177.1964599005878, -0.01600000075995922, -0.01600000075995922, 0.9920000471174717, 0.0, 0.0, 0.0, 0.0, 0.0, 1.7404843010795796E9, 0.0, 2025-02-25 11:51:41.079
5.0, -203.97975343326107, -362.4542741556652, 9.435767588205636, -301.8379756738432, -0.01600000075995922, -0.01600000075995922, 0.9920000471174717, 0.0, 0.0, 0.0, 0.0, 0.0, 1.7404843010796316E9, 0.0, 2025-02-25 11:51:41.079
6.0, -257.131211603526, -435.1803686940111, 17.401754493825138, -373.9806458191015, -0.01600000075995922, -0.01600000075995922, 0.9920000471174717, 0.0, 0.0, 0.0, 0.0, 0.0, 1.7404843010797677E9, 0.0, 2025-02-25 11:51:41.079
6.0, -118.10978050064296, -202.5754209998995, 16.347102706320584, -230.98744096327573, -0.01600000075995922, -0.01600000075995922, 0.9920000471174717, 0.0, 0.0, 0.0, 0.0, 0.0, 1.7404843010798233E9, 0.0, 2025-02-25 11:51:41.079
7.0, -62.92381675448269, -125.73169661033899, 17.985178886912763, -156.28667924832553, -0.01600000075995922, -0.01600000075995922, 0.9920000471174717, 0.0, 0.0, 0.0, 0.0, 0.0, 1.7404843011087515E9, 0.0, 2025-02-25 11:51:41.108
7.0, -196.35035752365366, -354.79121914645657, 11.717106561176479, -290.2966444105841, -0.01600000075995922, -0.01600000075995922, 0.9920000471174717, 0.0, 0.0, 0.0, 0.0, 0.0, 1.740484301109069E9, 0.0, 2025-02-25 11:51:41.109
8.0, -259.79028047202155, -442.8546434030868, 11.70588686130941, -375.5214846008457, -0.01600000075995922, -0.01600000075995922, 0.9920000471174717, 0.0, 0.0, 0.0, 0.0, 0.0, 1.7404843011092184E9, 0.0, 2025-02-25 11:51:41.109
8.0, -129.26964196842164, -219.52838749904186, 10.950427070260048, -252.83219660446048, -0.01600000075995922, -0.01600000075995922, 0.9920000471174717, 0.0, 0.0, 0.0, 0.0, 0.0, 1.7404843011093037E9, 0.0, 2025-02-25 11:51:41.109
9.0, -74.57734501641244, -134.42322410736233, 11.376775665208697, -171.88206206355244, -0.01600000075995922, -0.01600000075995922, 0.9920000471174717, 0.0, 0.0, 0.0, 0.0, 0.0, 1.7404843011097653E9, 0.0, 2025-02-25 11:51:41.109
9.0, -206.90809509856626, -361.7137739644386, 7.838830307126045, -300.6486874879338, -0.01600000075995922, -0.01600000075995922, 0.9920000471174717, 0.0, 0.0, 0.0, 0.0, 0.0, 1.7404843011098385E9, 0.0, 2025-02-25 11:51:41.109
10.0, -233.96253137802705, -422.9134968393482, 11.227179666981101, -355.53919913759455, -0.01600000075995922, -0.01600000075995922, 0.9920000471174717, 0.0, 0.0, 0.0, 0.0, 0.0, 1.7404843011400905E9, 0.0, 2025-02-25 11:51:41.140
10.0, -94.51849158015102, -186.11986119486392, 12.771758348681033, -222.0341204693541, -0.01600000075995922, -0.01600000075995922, 0.9920000471174717, 0.0, 0.0, 0.0, 0.0, 0.0, 1.7404843011401887E9, 0.0, 2025-02-25 11:51:41.140
11.0, -49.53871481306851, -106.5347901377827, 10.539038075134158, -152.23636759631336, -0.01600000075995922, 0.0, 0.9920000471174717, 0.0, 0.0, 0.0, 0.0, 0.0, 1.74048430114053E9, 0.0, 2025-02-25 11:51:41.140
11.0, -163.74216980999336, -324.9542972999625, 10.03789148107171, -267.68894917843863, -0.01600000075995922, 0.0, 0.9920000471174717, 0.0, 0.0, 0.0, 0.0, 0.0, 1.7404843011406193E9, 0.0, 2025-02-25 11:51:41.140
12.0, -201.2271870658733, -392.62404709821567, 10.344563277438283, -327.3515731715597, -0.01600000075995922, 0.0, 0.9920000471174717, 0.0, 0.0, 0.0, 0.0, 0.0, 1.7404843011406925E9, 0.0, 2025-02-25 11:51:41.140
12.0, -71.4807078531012, -163.0745976679027, 13.115829144604504, -187.45126557908952, -0.01600000075995922, 0.0, 0.9920000471174717, 0.0, 0.0, 0.0, 0.0, 0.0, 1.7404843011409397E9, 0.0, 2025-02-25 11:51:41.140
13.0, -25.846448593772948, -89.72393983695656, 9.009418993256986, -130.3953518550843, -0.01600000075995922, 0.0, 0.9920000471174717, 0.0, 0.0, 0.0, 0.0, 0.0, 1.7404843011689131E9, 0.0, 2025-02-25 11:51:41.168
13.0, -162.89695242000744, -323.64159241551533, 8.635428997687995, -272.20674832491204, -0.01600000075995922, 0.0, 0.9920000471174717, 0.0, 0.0, 0.0, 0.0, 0.0, 1.7404843011690068E9, 0.0, 2025-02-25 11:51:41.169
14.0, -202.60721014952287, -391.06824871664867, 13.471119640395045, -332.53507451014593, -0.01600000075995922, 0.0, 0.9920000471174717, 0.0, 0.0, 0.0, 0.0, 0.0, 1.7404843011691992E9, 0.0, 2025-02-25 11:51:41.169
14.0, -82.0758444275707, -178.95421287976205, 16.025471310131252, -208.99682922381908, -0.01600000075995922, 0.0, 0.9920000471174717, 0.0, 0.0, 0.0, 0.0, 0.0, 1.7404843011692576E9, 0.0, 2025-02-25 11:51:41.169
15.0, -66.26354741491377, -125.50730261299759, 13.777791436761618, -167.08751032035798, -0.01600000075995922, 0.0, 0.9920000471174717, 0.0, 0.0, 0.0, 0.0, 0.0, 1.740484301169855E9, 0.0, 2025-02-25 11:51:41.169
15.0, -210.71905315341428, -354.76503984676674, 12.06865715701133, -299.2312654047273, -0.01600000075995922, 0.0, 0.9920000471174717, 0.0, 0.0, 0.0, 0.0, 0.0, 1.7404843011699257E9, 0.0, 2025-02-25 11:51:41.169
16.0, -230.43580571981147, -405.8483333415352, 15.838476312346756, -354.9632545444183, -0.01600000075995922, 0.0, 0.9920000471174717, 0.0, 0.0, 0.0, 0.0, 0.0, 1.7404843011987016E9, 0.0, 2025-02-25 11:51:41.198
16.0, -105.37916105147451, -195.25269688665867, 15.636521714739501, -229.71213507838547, -0.01600000075995922, 0.0, 0.9920000471174717, 0.0, 0.0, 0.0, 0.0, 0.0, 1.7404843011989553E9, 0.0, 2025-02-25 11:51:41.198
17.0, -78.85579056572169, -140.85211213119328, 8.635428997687995, -188.58071536570787, -0.01600000075995922, 0.0, 0.9920000471174717, 0.0, 0.0, 0.0, 0.0, 0.0, 1.7404843011991355E9, 0.0, 2025-02-25 11:51:41.199
17.0, -207.75705238850787, -360.54692517826334, 12.622162350453436, -315.806502008345, -0.01600000075995922, 0.0, 0.9920000471174717, 0.0, 0.0, 0.0, 0.0, 0.0, 1.7404843011991928E9, 0.0, 2025-02-25 11:51:41.199
18.0, -244.85685994895175, -434.05091890739277, 11.616129262372851, -368.50917218392715, -0.01600000075995922, 0.0, 0.9920000471174717, 0.0, 0.0, 0.0, 0.0, 0.0, 1.7404843011997762E9, 0.0, 2025-02-25 11:51:41.199
18.0, -135.3208000967279, -229.61489767953753, 13.366402441635728, -263.52083067782223, -0.01600000075995922, 0.0, 0.9920000471174717, 0.0, 0.0, 0.0, 0.0, 0.0, 1.7404843011998708E9, 0.0, 2025-02-25 11:51:41.199
19.0, -123.64109253510833, -174.24193893559277, 15.150334720499814, -226.82119241263717, -0.01600000075995922, 0.0, 0.9920000471174717, 0.0, 0.0, 0.0, 0.0, 0.0, 1.7404843012288587E9, 0.0, 2025-02-25 11:51:41.228
19.0, -261.1366444560699, -399.55782161606476, 8.945840694010258, -358.3703034040518, -0.01600000075995922, 0.0, 0.9920000471174717, 0.0, 0.0, 0.0, 0.0, 0.0, 1.74048430122895E9, 0.0, 2025-02-25 11:51:41.228
20.0, -285.3824158688076, -452.02861799439415, 7.109549815766513, -400.7620694017969, -0.01600000075995922, 0.0, 0.9920000471174717, 0.0, 0.0, 0.0, 0.0, 0.0, 1.7404843012293992E9, 0.0, 2025-02-25 11:51:41.229
20.0, -151.64546340331435, -231.31655215937644, 12.977452846243978, -270.70891839265823, -0.01600000075995922, 0.0, 0.9920000471174717, 0.0, 0.0, 0.0, 0.0, 0.0, 1.7404843012295964E9, 0.0, 2025-02-25 11:51:41.229
21.0, -134.48306250665337, -176.03709091432393, 12.274351654574275, -229.36058448255062, -0.01600000075995922, -0.01600000075995922, 0.9920000471174717, 0.0, 0.0, 0.0, 0.0, 0.0, 1.7404843012300315E9, 0.0, 2025-02-25 11:51:41.230
21.0, -238.62244672281668, -379.8560286494903, 11.780684860423207, -338.01402794523165, -0.01600000075995922, -0.01600000075995922, 0.9920000471174717, 0.0, 0.0, 0.0, 0.0, 0.0, 1.740484301230114E9, 0.0, 2025-02-25 11:51:41.230
22.0, -247.48974951775745, -408.38024561153725, 12.685740649700165, -362.4093953561969, -0.01600000075995922, -0.01600000075995922, 0.9920000471174717, 0.0, 0.0, 0.0, 0.0, 0.0, 1.7404843012594726E9, 0.0, 2025-02-25 11:51:41.259
22.0, -105.98502484429628, -179.93032676819712, 14.406094629317522, -228.08527859766036, -0.01600000075995922, -0.01600000075995922, 0.9920000471174717, 0.0, 0.0, 0.0, 0.0, 0.0, 1.7404843012595975E9, 0.0, 2025-02-25 11:51:41.259
23.0, -67.84178519621491, -113.47230455558747, 5.366756436415017, -165.68130793701857, -0.01600000075995922, -0.01600000075995922, 0.9920000471174717, 0.0, 0.0, 0.0, 0.0, 0.0, 1.7404843012598915E9, 0.0, 2025-02-25 11:51:41.259
23.0, -160.2042244519107, -293.7784912693314, 9.985532881692052, -252.11974566290155, -0.01600000075995922, -0.01600000075995922, 0.9920000471174717, 0.0, 0.0, 0.0, 0.0, 0.0, 1.7404843012600436E9, 0.0, 2025-02-25 11:51:41.260
24.0, -120.08631762722507, -306.6063481173478, 12.655821450054646, -244.5464482526295, -0.01600000075995922, -0.01600000075995922, 0.9920000471174717, 0.0, 0.0, 0.0, 0.0, 0.0, 1.7404843012603025E9, 0.0, 2025-02-25 11:51:41.260
24.0, -11.956460158340633, -100.86884170491248, 13.28038474265486, -135.38437839597464, -0.01600000075995922, -0.01600000075995922, 0.9920000471174717, 0.0, 0.0, 0.0, 0.0, 0.0, 1.740484301260382E9, 0.0, 2025-02-25 11:51:41.260
25.0, -25.74547129496932, -80.1123969508335, 15.849696012213826, -131.23308944515884, -0.01600000075995922, -0.01600000075995922, 0.9920000471174717, 0.0, 0.0, 0.0, 0.0, 0.0, 1.740484301289135E9, 0.0, 2025-02-25 11:51:41.289
25.0, -154.06704862462357, -304.5007844422944, 13.639415138401091, -259.6967829731293, -0.01600000075995922, -0.01600000075995922, 0.9920000471174717, 0.0, 0.0, 0.0, 0.0, 0.0, 1.7404843012892497E9, 0.0, 2025-02-25 11:51:41.289
26.0, -184.1021851687692, -378.0197377712466, 14.952120022848248, -316.023416205775, -0.01600000075995922, -0.01600000075995922, 0.9920000471174717, 0.0, 0.0, 0.0, 0.0, 0.0, 1.7404843012894156E9, 0.0, 2025-02-25 11:51:41.289
26.0, -80.06751815136522, -175.65936101879925, 18.718199278227985, -214.8796918541193, -0.01600000075995922, -0.01600000075995922, 0.9920000471174717, 0.0, 0.0, 0.0, 0.0, 0.0, 1.7404843012895272E9, 0.0, 2025-02-25 11:51:41.289
27.0, -107.1256943307817, -158.20524792559445, 11.889141959138215, -212.41509778331965, -0.01600000075995922, -0.01600000075995922, 0.9920000471174717, 0.0, 0.0, 0.0, 0.0, 0.0, 1.7404843012902477E9, 0.0, 2025-02-25 11:51:41.290
27.0, -227.92259294958785, -369.0065788780339, 9.69008078519255, -334.56210028612986, -0.01600000075995922, -0.01600000075995922, 0.9920000471174717, 0.0, 0.0, 0.0, 0.0, 0.0, 1.740484301290348E9, 0.0, 2025-02-25 11:51:41.290
28.0, -237.21250443952158, -411.3646857761778, 12.943793746642768, -360.05699828406796, -0.01600000075995922, -0.01600000075995922, 0.9920000471174717, 0.0, 0.0, 0.0, 0.0, 0.0, 1.7404843013188217E9, 0.0, 2025-02-25 11:51:41.318
28.0, -117.18976511154324, -201.58808741159737, 15.053097321651876, -235.99142710398883, -0.01600000075995922, -0.01600000075995922, 0.9920000471174717, 0.0, 0.0, 0.0, 0.0, 0.0, 1.7404843013189921E9, 0.0, 2025-02-25 11:51:41.318
29.0, -107.29024992883205, -152.9955672873184, 13.605756038799882, -215.48555564694107, -0.01600000075995922, -0.01600000075995922, 0.9920000471174717, 0.0, 0.0, 0.0, 0.0, 0.0, 1.7404843013193092E9, 0.0, 2025-02-25 11:51:41.319
29.0, -229.6466868291609, -339.409010628704, 5.849203530699015, -332.2097032140009, -0.01600000075995922, -0.01600000075995922, 0.9920000471174717, 0.0, 0.0, 0.0, 0.0, 0.0, 1.7404843013195505E9, 0.0, 2025-02-25 11:51:41.319
30.0, -236.50940324785188, -364.6720348293893, 10.007972281426191, -363.1124965478666, -0.01600000075995922, -0.01600000075995922, 0.9920000471174717, 0.0, 0.0, 0.0, 0.0, 0.0, 1.740484301319818E9, 0.0, 2025-02-25 11:51:41.319
30.0, -119.14199288841337, -133.1703576222062, 10.707333573140204, -250.06841053720564, -0.01600000075995922, -0.01600000075995922, 0.9920000471174717, 0.0, 0.0, 0.0, 0.0, 0.0, 1.7404843013199174E9, 0.0, 2025-02-25 11:51:41.319
31.0, -136.93643687758595, -87.36780286487192, 11.67596766166389, -260.81688300985843, -0.01600000075995922, -0.01600000075995922, 0.9920000471174717, 0.0, 0.0, 0.0, 0.0, 0.0, 1.7404843013490634E9, 0.0, 2025-02-25 11:51:41.349
31.0, -255.60907232156023, -283.31425119331107, 10.946687170304358, -384.3887873957865, -0.01600000075995922, -0.01600000075995922, 0.9920000471174717, 0.0, 0.0, 0.0, 0.0, 0.0, 1.740484301349134E9, 0.0, 2025-02-25 11:51:41.349
32.0, -259.48734857561067, -314.92014571884647, 9.742439384572208, -412.8008073591627, -0.01600000075995922, -0.01600000075995922, 0.9920000471174717, 0.0, 0.0, 0.0, 0.0, 0.0, 1.7404843013493023E9, 0.0, 2025-02-25 11:51:41.349
32.0, -151.0321198105812, -106.34031534008682, 11.571250462904572, -298.2981603657827, -0.01600000075995922, -0.01600000075995922, 0.9920000471174717, 0.0, 0.0, 0.0, 0.0, 0.0, 1.740484301349362E9, 0.0, 2025-02-25 11:51:41.349
33.0, -173.0414310498163, -82.13568282686174, 9.622762585990131, -294.5881796097383, -0.01600000075995922, -0.01600000075995922, 0.9920000471174717, 0.0, 0.0, 0.0, 0.0, 0.0, 1.7404843013498528E9, 0.0, 2025-02-25 11:51:41.349
33.0, -286.571704054717, -303.02726385975257, 10.370742577128112, -406.1026465385221, -0.01600000075995922, -0.01600000075995922, 0.9920000471174717, 0.0, 0.0, 0.0, 0.0, 0.0, 1.740484301349977E9, 0.0, 2025-02-25 11:51:41.349
34.0, -261.8771446472965, -324.86453970102593, 10.06033088080585, -399.6475792150013, -0.01600000075995922, -0.01600000075995922, 0.9920000471174717, 0.0, 0.0, 0.0, 0.0, 0.0, 1.7404843013791845E9, 0.0, 2025-02-25 11:51:41.379
34.0, -140.3995842365548, -126.22536340449005, 14.996998822316527, -275.96721773035824, -0.01600000075995922, -0.01600000075995922, 0.9920000471174717, 0.0, 0.0, 0.0, 0.0, 0.0, 1.740484301379295E9, 0.0, 2025-02-25 11:51:41.379
35.0, -151.18919560872018, -96.64275475498289, 11.530111563391984, -262.28666369244456, -0.01600000075995922, -0.01600000075995922, 0.9920000471174717, 0.0, 0.0, 0.0, 0.0, 0.0, 1.7404843013795912E9, 0.0, 2025-02-25 11:51:41.379
35.0, -241.15061909286305, -282.32691760500893, 13.422500940971076, -353.17184246564284, -0.01600000075995922, -0.01600000075995922, 0.9920000471174717, 0.0, 0.0, 0.0, 0.0, 0.0, 1.740484301379786E9, 0.0, 2025-02-25 11:51:41.379
36.0, -210.36750255757943, -300.1176216942258, 16.279784507118165, -335.8785450705327, -0.01600000075995922, -0.01600000075995922, 0.9920000471174717, 0.0, 0.0, 0.0, 0.0, 0.0, 1.7404843013798957E9, 0.0, 2025-02-25 11:51:41.379
36.0, -80.12361665070057, -94.33523648232222, 12.670781049877405, -219.44610970001668, -0.01600000075995922, -0.01600000075995922, 0.9920000471174717, 0.0, 0.0, 0.0, 0.0, 0.0, 1.7404843013799813E9, 0.0, 2025-02-25 11:51:41.379
37.0, -107.33886862825602, -78.28358587250113, 8.414774900302291, -228.52284689247608, -0.01600000075995922, -0.01600000075995922, 0.9920000471174717, 0.0, 0.0, 0.0, 0.0, 0.0, 1.7404843014087088E9, 0.0, 2025-02-25 11:51:41.408
37.0, -226.69216586416587, -290.35274290991947, 11.784424760378897, -344.86926456401125, -0.01600000075995922, -0.01600000075995922, 0.9920000471174717, 0.0, 0.0, 0.0, 0.0, 0.0, 1.7404843014087896E9, 0.0, 2025-02-25 11:51:41.408
38.0, -202.5997303496115, -311.6851322571747, 13.142008444294333, -339.999914821703, -0.01600000075995922, -0.01600000075995922, 0.9920000471174717, 0.0, 0.0, 0.0, 0.0, 0.0, 1.7404843014091299E9, 0.0, 2025-02-25 11:51:41.409
38.0, -74.31929191946983, -103.53539037331939, 12.682000749744475, -222.6287645623088, -0.01600000075995922, -0.01600000075995922, 0.9920000471174717, 0.0, 0.0, 0.0, 0.0, 0.0, 1.74048430140919E9, 0.0, 2025-02-25 11:51:41.409
39.0, -124.40029222611338, -94.11084248498082, 11.67970756161958, -240.524185850285, -0.01600000075995922, -0.01600000075995922, 0.9920000471174717, 0.0, 0.0, 0.0, 0.0, 0.0, 1.7404843014099324E9, 0.0, 2025-02-25 11:51:41.409
39.0, -248.18911080947146, -303.4872715543024, 10.87562907114625, -367.787371492479, -0.01600000075995922, -0.01600000075995922, 0.9920000471174717, 0.0, 0.0, 0.0, 0.0, 0.0, 1.740484301410067E9, 0.0, 2025-02-25 11:51:41.410
40.0, -220.36425513913855, -330.9119579293765, 16.253605207428336, -362.79834495158866, -0.01600000075995922, -0.01600000075995922, 0.9920000471174717, 0.0, 0.0, 0.0, 0.0, 0.0, 1.7404843014396317E9, 0.0, 2025-02-25 11:51:41.439
40.0, -100.53973050881177, -129.542654665187, 11.619869162328541, -252.98927240259945, -0.01600000075995922, -0.01600000075995922, 0.9920000471174717, 0.0, 0.0, 0.0, 0.0, 0.0, 1.74048430143987E9, 0.0, 2025-02-25 11:51:41.439
41.0, -132.87116562575102, -116.56894171889871, 8.949580593965948, -263.1169214826077, -0.01600000075995922, -0.01600000075995922, 0.9920000471174717, 0.0, 0.0, 0.0, 0.0, 0.0, 1.74048430144041E9, 0.0, 2025-02-25 11:51:41.440
41.0, -262.2099957433529, -328.7390760551207, 8.84860329516232, -378.4947050656192, -0.01600000075995922, -0.01600000075995922, 0.9920000471174717, 0.0, 0.0, 0.0, 0.0, 0.0, 1.7404843014405148E9, 0.0, 2025-02-25 11:51:41.440
42.0, -224.13781419442967, -341.55571320327, 10.015452081337571, -362.7011075527407, -0.01600000075995922, -0.01600000075995922, 0.9920000471174717, 0.0, 0.0, 0.0, 0.0, 0.0, 1.7404843014408703E9, 0.0, 2025-02-25 11:51:41.440
42.0, -105.35298175178468, -128.4281644783914, 14.342516330070794, -247.51405886746943, -0.01600000075995922, -0.01600000075995922, 0.9920000471174717, 0.0, 0.0, 0.0, 0.0, 0.0, 1.7404843014409873E9, 0.0, 2025-02-25 11:51:41.440
43.0, -151.22659460827708, -134.7710348032415, 6.974913417361677, -278.2148976037279, -0.01600000075995922, -0.01600000075995922, 0.9920000471174717, 0.0, 0.0, 0.0, 0.0, 0.0, 1.7404843014690523E9, 0.0, 2025-02-25 11:51:41.469
43.0, -283.4227082920261, -351.0438393908553, 13.381362041458488, -399.81213481305167, -0.01600000075995922, -0.01600000075995922, 0.9920000471174717, 0.0, 0.0, 0.0, 0.0, 0.0, 1.740484301469217E9, 0.0, 2025-02-25 11:51:41.469
44.0, -237.3172216382809, -355.8533507338725, 13.613235838711262, -371.0859632533975, -0.01600000075995922, -0.01600000075995922, 0.9920000471174717, 0.0, 0.0, 0.0, 0.0, 0.0, 1.7404843014693072E9, 0.0, 2025-02-25 11:51:41.469
44.0, -120.8698266679421, -151.1480567092076, 14.005925334058702, -253.74099229369313, -0.01600000075995922, -0.01600000075995922, 0.9920000471174717, 0.0, 0.0, 0.0, 0.0, 0.0, 1.7404843014693868E9, 0.0, 2025-02-25 11:51:41.469
45.0, -182.09572884254158, -157.1505961380899, 13.897468235343695, -289.45329697057605, -0.01600000075995922, -0.01600000075995922, 0.9920000471174717, 0.0, 0.0, 0.0, 0.0, 0.0, 1.7404843014698503E9, 0.0, 2025-02-25 11:51:41.469
45.0, -297.51465132506564, -359.0098262964748, 9.207633690908551, -405.22377004893497, -0.01600000075995922, -0.01600000075995922, 0.9920000471174717, 0.0, 0.0, 0.0, 0.0, 0.0, 1.7404843014699335E9, 0.0, 2025-02-25 11:51:41.469
46.0, -253.64562484482303, -374.6800071108155, 13.557137339375913, -383.9399994011037, -0.01600000075995922, -0.01600000075995922, 0.9920000471174717, 0.0, 0.0, 0.0, 0.0, 0.0, 1.7404843014987533E9, 0.0, 2025-02-25 11:51:41.498
46.0, -133.22271622158587, -170.53569807950407, 12.84655634779483, -268.37522082030773, -0.01600000075995922, -0.01600000075995922, 0.9920000471174717, 0.0, 0.0, 0.0, 0.0, 0.0, 1.7404843014990475E9, 0.0, 2025-02-25 11:51:41.499
47.0, -181.1570139536634, -163.31021136511117, 9.166494791395962, -296.12153859157115, -0.01600000075995922, -0.01600000075995922, 0.9920000471174717, 0.0, 0.0, 0.0, 0.0, 0.0, 1.7404843014991891E9, 0.0, 2025-02-25 11:51:41.499
47.0, -286.88211575103924, -361.7885719635524, 10.337083477526903, -395.200838167686, -0.01600000075995922, -0.01600000075995922, 0.9920000471174717, 0.0, 0.0, 0.0, 0.0, 0.0, 1.7404843014992523E9, 0.0, 2025-02-25 11:51:41.499
48.0, -223.6815463998355, -352.5210998733528, 11.945240458473563, -354.4172291508876, -0.01600000075995922, -0.01600000075995922, 0.9920000471174717, 0.0, 0.0, 0.0, 0.0, 0.0, 1.7404843015000055E9, 0.0, 2025-02-25 11:51:41.500
48.0, -101.73649849463254, -143.45508250035346, 18.441446681506932, -240.23995345365256, -0.01600000075995922, -0.01600000075995922, 0.9920000471174717, 0.0, 0.0, 0.0, 0.0, 0.0, 1.7404843015000596E9, 0.0, 2025-02-25 11:51:41.500
49.0, -158.25012672506273, -141.49163502361625, 13.459899940527976, -269.66548630502075, -0.01600000075995922, -0.01600000075995922, 0.9920000471174717, 0.0, 0.0, 0.0, 0.0, 0.0, 1.7404843015287695E9, 0.0, 2025-02-25 11:51:41.528
49.0, -266.37998419394717, -343.3321656822227, 11.776944960467517, -375.0165981068276, -0.01600000075995922, -0.01600000075995922, 0.9920000471174717, 0.0, 0.0, 0.0, 0.0, 0.0, 1.7404843015289109E9, 0.0, 2025-02-25 11:51:41.528
50.0, -194.61130404425785, -327.56474746903405, 10.04537128098309, -322.3176678312011, -0.01600000075995922, -0.01600000075995922, 1.008000047877431, 0.0, 0.0, 0.0, 0.0, 0.0, 1.740484301529216E9, 0.0, 2025-02-25 11:51:41.529
50.0, -73.50399372912943, -125.92617140803486, 11.945240458473563, -205.14473226945847, -0.01600000075995922, -0.01600000075995922, 1.008000047877431, 0.0, 0.0, 0.0, 0.0, 0.0, 1.7404843015292785E9, 0.0, 2025-02-25 11:51:41.529
51.0, -130.0587608590722, -125.71673701051623, 14.005925334058702, -242.94390112161636, -0.01600000075995922, -0.01600000075995922, 1.008000047877431, 0.0, 0.0, 0.0, 0.0, 0.0, 1.7404843015303476E9, 0.0, 2025-02-25 11:51:41.530
51.0, -249.8758056894876, -328.7689952547662, 10.748472472652793, -359.14072279492393, -0.01600000075995922, -0.01600000075995922, 1.008000047877431, 0.0, 0.0, 0.0, 0.0, 0.0, 1.7404843015304537E9, 0.0, 2025-02-25 11:51:41.530
52.0, -186.81735253660008, -322.403685530182, 13.856329335831106, -317.2875023907982, -0.01600000075995922, -0.01600000075995922, 1.008000047877431, 0.0, 0.0, 0.0, 0.0, 0.0, 1.740484301558712E9, 0.0, 2025-02-25 11:51:41.558
52.0, -66.37200451362878, -120.37241997383535, 10.44554057624191, -203.07656759396195, -0.01600000075995922, -0.01600000075995922, 1.008000047877431, 0.0, 0.0, 0.0, 0.0, 0.0, 1.7404843015589974E9, 0.0, 2025-02-25 11:51:41.558
53.0, -145.78504017274827, -140.3621852369979, 12.771758348681033, -262.17820659372956, -0.01600000075995922, -0.01600000075995922, 1.008000047877431, 0.0, 0.0, 0.0, 0.0, 0.0, 1.7404843015592213E9, 0.0, 2025-02-25 11:51:41.559
53.0, -270.16850284906104, -356.5601918254979, 9.884555582888424, -382.02891052374616, -0.01600000075995922, -0.01600000075995922, 1.008000047877431, 0.0, 0.0, 0.0, 0.0, 0.0, 1.740484301559311E9, 0.0, 2025-02-25 11:51:41.559
54.0, -206.99785269750282, -345.2245550598018, 10.340823377482593, -334.3152668890543, -0.01600000075995922, -0.01600000075995922, 1.008000047877431, 0.0, 0.0, 0.0, 0.0, 0.0, 1.7404843015597804E9, 0.0, 2025-02-25 11:51:41.559
54.0, -85.68110798485577, -149.334205230698, 9.200153890997171, -223.48520165216178, -0.01600000075995922, -0.01600000075995922, 1.008000047877431, 0.0, 0.0, 0.0, 0.0, 0.0, 1.7404843015598495E9, 0.0, 2025-02-25 11:51:41.559
55.0, -163.3737896643579, -155.2619466604665, 12.236952655017376, -280.71315077412874, -0.01600000075995922, -0.01600000075995922, 1.008000047877431, 0.0, 0.0, 0.0, 0.0, 0.0, 1.7404843015889845E9, 0.0, 2025-02-25 11:51:41.588
55.0, -284.7054939768277, -366.02213871339336, 13.112089244648814, -403.8325272654183, -0.01600000075995922, -0.01600000075995922, 1.008000047877431, 0.0, 0.0, 0.0, 0.0, 0.0, 1.7404843015891614E9, 0.0, 2025-02-25 11:51:41.589
56.0, -210.21416665939614, -349.7760133058764, 9.484386287629604, -347.2553207357414, -0.01600000075995922, -0.01600000075995922, 1.008000047877431, 0.0, 0.0, 0.0, 0.0, 0.0, 1.7404843015893755E9, 0.0, 2025-02-25 11:51:41.589
56.0, -87.13218916766346, -147.97288164682686, 15.771158113144338, -234.73108081892133, -0.01600000075995922, -0.01600000075995922, 1.008000047877431, 0.0, 0.0, 0.0, 0.0, 0.0, 1.7404843015894773E9, 0.0, 2025-02-25 11:51:41.589
57.0, -184.39576731529087, -181.9760520439595, 13.70299343764782, -303.7322350014001, -0.01600000075995922, -0.01600000075995922, 1.008000047877431, 0.0, 0.0, 0.0, 0.0, 0.0, 1.7404843015897768E9, 0.0, 2025-02-25 11:51:41.589
57.0, -319.03403567010537, -391.89476660685614, 12.09857635665685, -432.20340832928196, -0.01600000075995922, -0.01600000075995922, 1.008000047877431, 0.0, 0.0, 0.0, 0.0, 0.0, 1.7404843015899005E9, 0.0, 2025-02-25 11:51:41.589
58.0, -231.80460910359398, -367.0356516013853, 12.577283550985157, -359.76528608752415, -0.01600000075995922, -0.01600000075995922, 1.008000047877431, 0.0, 0.0, 0.0, 0.0, 0.0, 1.7404843016187224E9, 0.0, 2025-02-25 11:51:41.618
58.0, -106.80032303463668, -167.5288185151294, 16.55279720388353, -247.5664174668491, -0.01600000075995922, -0.01600000075995922, 1.008000047877431, 0.0, 0.0, 0.0, 0.0, 0.0, 1.7404843016187925E9, 0.0, 2025-02-25 11:51:41.618
59.0, -193.75299700442702, -195.33497468568385, 10.194967279210687, -314.9220156688243, -0.01600000075995922, -0.01600000075995922, 1.008000047877431, 0.0, 0.0, 0.0, 0.0, 0.0, 1.7404843016193419E9, 0.0, 2025-02-25 11:51:41.619
59.0, -316.0495955054648, -387.78087665559724, 8.167941503226757, -417.2812075060792, -0.01600000075995922, -0.01600000075995922, 1.008000047877431, 0.0, 0.0, 0.0, 0.0, 0.0, 1.7404843016194649E9, 0.0, 2025-02-25 11:51:41.619
60.0, -211.22393964743242, -351.6347435838543, 15.000738722272217, -339.08737923251465, -0.01600000075995922, -0.01600000075995922, 0.9920000471174717, 0.0, 0.0, 0.0, 0.0, 0.0, 1.7404843016197925E9, 0.0, 2025-02-25 11:51:41.619
60.0, -81.81031153071672, -148.94151573535055, 12.326710253953934, -222.65120396204293, -0.01600000075995922, -0.01600000075995922, 0.9920000471174717, 0.0, 0.0, 0.0, 0.0, 0.0, 1.7404843016198564E9, 0.0, 2025-02-25 11:51:41.619
61.0, -178.69241988286376, -182.76143103465438, 10.4866794757545, -290.7248629555106, -0.01600000075995922, -0.01600000075995922, 0.9920000471174717, 0.0, 0.0, 0.0, 0.0, 0.0, 1.7404843016487849E9, 0.0, 2025-02-25 11:51:41.648
61.0, -295.84291604487225, -381.7932968265377, 11.28327816631645, -402.3216076833196, -0.01600000075995922, -0.01600000075995922, 0.9920000471174717, 0.0, 0.0, 0.0, 0.0, 0.0, 1.7404843016489131E9, 0.0, 2025-02-25 11:51:41.648
62.0, -198.23152720136568, -343.1863095839508, 12.625902250409126, -321.4013923420571, -0.01600000075995922, -0.01600000075995922, 0.9920000471174717, 0.0, 0.0, 0.0, 0.0, 0.0, 1.7404843016493692E9, 0.0, 2025-02-25 11:51:41.649
62.0, -72.35210454277694, -144.15070389211178, 14.806263924576342, -209.37829901929945, -0.01600000075995922, -0.01600000075995922, 0.9920000471174717, 0.0, 0.0, 0.0, 0.0, 0.0, 1.7404843016494539E9, 0.0, 2025-02-25 11:51:41.649
63.0, -166.21611363068223, -170.97700627427548, 9.125355891883373, -285.96771021187305, -0.01600000075995922, -0.01600000075995922, 0.9920000471174717, 0.0, 0.0, 0.0, 0.0, 0.0, 1.740484301650067E9, 0.0, 2025-02-25 11:51:41.650
63.0, -298.4533662139438, -380.18139994563535, 10.553997674956918, -409.8014075946994, -0.01600000075995922, -0.01600000075995922, 0.9920000471174717, 0.0, 0.0, 0.0, 0.0, 0.0, 1.7404843016501331E9, 0.0, 2025-02-25 11:51:41.650
64.0, -201.60117706144229, -352.90256966883317, 16.09278950933367, -326.86538617732003, -0.01600000075995922, -0.01600000075995922, 0.9920000471174717, 0.0, 0.0, 0.0, 0.0, 0.0, 1.7404843016789584E9, 0.0, 2025-02-25 11:51:41.678
64.0, -82.48723342269659, -157.8948362292722, 15.602862615138292, -218.15210431534797, -0.01600000075995922, -0.01600000075995922, 0.9920000471174717, 0.0, 0.0, 0.0, 0.0, 0.0, 1.7404843016790829E9, 0.0, 2025-02-25 11:51:41.679
65.0, -201.9433779073879, -202.48192350100726, 9.791058083996177, -302.38961091730744, -0.01600000075995922, -0.01600000075995922, 0.9920000471174717, 0.0, 0.0, 0.0, 0.0, 0.0, 1.7404843017091348E9, 0.0, 2025-02-25 11:51:41.709
65.0, -322.355066830758, -404.07562076253816, 8.785024995915592, -420.8752513634972, -0.01600000075995922, -0.01600000075995922, 0.9920000471174717, 0.0, 0.0, 0.0, 0.0, 0.0, 1.7404843017093394E9, 0.0, 2025-02-25 11:51:41.709
66.0, -206.8183374996297, -357.02019952004775, 14.963339722715318, -332.70710990810767, -0.01600000075995922, -0.01600000075995922, 0.9920000471174717, 0.0, 0.0, 0.0, 0.0, 0.0, 1.7404843017094908E9, 0.0, 2025-02-25 11:51:41.709
66.0, -83.31375131290406, -161.47392048686743, 10.251065778546035, -211.68207739200443, -0.01600000075995922, -0.01600000075995922, 0.9920000471174717, 0.0, 0.0, 0.0, 0.0, 0.0, 1.7404843017099297E9, 0.0, 2025-02-25 11:51:41.709
67.0, -196.99549026601017, -199.30674843862653, 8.220300102606416, -302.1801765197888, -0.01600000075995922, -0.01600000075995922, 0.9920000471174717, 0.0, 0.0, 0.0, 0.0, 0.0, 1.7404843017115815E9, 0.0, 2025-02-25 11:51:41.711
67.0, -317.99808338237926, -400.1300263092853, 6.679461320862174, -414.6258785375394, -0.01600000075995922, -0.01600000075995922, 0.9920000471174717, 0.0, 0.0, 0.0, 0.0, 0.0, 1.7404843017116876E9, 0.0, 2025-02-25 11:51:41.711
68.0, -201.16734866658226, -348.93827571580186, 4.974066941067576, -321.45001104148105, -0.01600000075995922, -0.01600000075995922, 0.9920000471174717, 0.0, 0.0, 0.0, 0.0, 0.0, 1.7404843017118926E9, 0.0, 2025-02-25 11:51:41.711
68.0, -69.7005154741928, -141.57765272259712, 11.855482859537005, -200.85880692023784, -0.01600000075995922, -0.01600000075995922, 0.9920000471174717, 0.0, 0.0, 0.0, 0.0, 0.0, 1.740484301712036E9, 0.0, 2025-02-25 11:51:41.712
69.0, -173.50517864432186, -180.55489006079733, 10.47545977588743, -295.38477830030024, -0.01600000075995922, -0.01600000075995922, 0.9920000471174717, 0.0, 0.0, 0.0, 0.0, 0.0, 1.7404843017122416E9, 0.0, 2025-02-25 11:51:41.712
69.0, -309.0559825883247, -397.2727427431382, 12.210773355327547, -414.0648935441859, -0.01600000075995922, -0.01600000075995922, 0.9920000471174717, 0.0, 0.0, 0.0, 0.0, 0.0, 1.7404843017124205E9, 0.0, 2025-02-25 11:51:41.712
70.0, -188.64616361493245, -352.0274330792017, 9.379669088870287, -317.6914115860127, -0.01600000075995922, -0.01600000075995922, 0.9920000471174717, 0.0, 0.0, 0.0, 0.0, 0.0, 1.7404843017393014E9, 0.0, 2025-02-25 11:51:41.739
70.0, -58.01332811266184, -138.19678316265345, 17.461592893116176, -192.5001305192709, -0.01600000075995922, -0.01600000075995922, 0.9920000471174717, 0.0, 0.0, 0.0, 0.0, 0.0, 1.740484301739365E9, 0.0, 2025-02-25 11:51:41.739
71.0, -183.718845423311, -184.8333356101066, 11.081323568709195, -292.56115383375436, -0.01600000075995922, 0.0, 0.9920000471174717, 0.0, 0.0, 0.0, 0.0, 0.0, 1.740484301739416E9, 0.0, 2025-02-25 11:51:41.739
71.0, -301.62854127632454, -388.6410536454059, 15.056837221607566, -406.3906188351102, -0.01600000075995922, 0.0, 0.9920000471174717, 0.0, 0.0, 0.0, 0.0, 0.0, 1.7404843017394552E9, 0.0, 2025-02-25 11:51:41.739
72.0, -177.19832985056564, -333.8141202949919, 8.609249697998166, -301.7519579748623, -0.01600000075995922, 0.0, 0.9920000471174717, 0.0, 0.0, 0.0, 0.0, 0.0, 1.7404843017405941E9, 0.0, 2025-02-25 11:51:41.740
72.0, -44.63944587111473, -122.29846845101565, 10.576437074691057, -176.70653300639242, -0.01600000075995922, 0.0, 0.9920000471174717, 0.0, 0.0, 0.0, 0.0, 0.0, 1.7404843017407289E9, 0.0, 2025-02-25 11:51:41.740
73.0, -166.13009593170136, -177.86964189261198, 14.46967292856425, -278.78336239699274, -0.01600000075995922, 0.0, 0.9920000471174717, 0.0, 0.0, 0.0, 0.0, 0.0, 1.740484301768777E9, 0.0, 2025-02-25 11:51:41.768
73.0, -293.6363750710152, -380.9106804369949, 11.212220067158341, -403.07332757441327, -0.01600000075995922, 0.0, 0.9920000471174717, 0.0, 0.0, 0.0, 0.0, 0.0, 1.7404843017689388E9, 0.0, 2025-02-25 11:51:41.768
74.0, -158.84664076799527, -318.4693107767962, 10.785871472209692, -289.46638662042096, -0.01600000075995922, 0.0, 0.9920000471174717, 0.0, 0.0, 0.0, 0.0, 0.0, 1.7404843017693205E9, 0.0, 2025-02-25 11:51:41.769
74.0, -26.291496688500047, -118.21449769940227, 13.194367043673992, -169.28283159434795, -0.01600000075995922, 0.0, 0.9920000471174717, 0.0, 0.0, 0.0, 0.0, 0.0, 1.740484301769407E9, 0.0, 2025-02-25 11:51:41.769
75.0, -157.71158113144338, -177.07304320205003, 11.189780667424202, -280.21948397997767, -0.01600000075995922, 0.0, 0.9920000471174717, 0.0, 0.0, 0.0, 0.0, 0.0, 1.7404843017698345E9, 0.0, 2025-02-25 11:51:41.769
75.0, -276.72080757142976, -371.65816794661805, 8.598029998131096, -397.03712904592976, -0.01600000075995922, 0.0, 0.9920000471174717, 0.0, 0.0, 0.0, 0.0, 0.0, 1.740484301769935E9, 0.0, 2025-02-25 11:51:41.769
76.0, -141.95351266814396, -301.85293527366593, 11.264578666538, -270.6285105436109, -0.01600000075995922, 0.0, 0.9920000471174717, 0.0, 0.0, 0.0, 0.0, 0.0, 1.7404843017996027E9, 0.0, 2025-02-25 11:51:41.799
76.0, -0.5946440929546952, -91.90804141107947, 9.297391289845109, -140.49682163540274, -0.01600000075995922, 0.0, 0.9920000471174717, 0.0, 0.0, 0.0, 0.0, 0.0, 1.7404843017997055E9, 0.0, 2025-02-25 11:51:41.799
77.0, -148.8106192369014, -163.3401305647567, 13.396321641281247, -264.500684466213, -0.01600000075995922, 0.0, 0.9920000471174717, 0.0, 0.0, 0.0, 0.0, 0.0, 1.7404843018000946E9, 0.0, 2025-02-25 11:51:41.800
77.0, -276.05136547936127, -366.5681641069241, 12.745579048991203, -381.32206943212077, -0.01600000075995922, 0.0, 0.9920000471174717, 0.0, 0.0, 0.0, 0.0, 0.0, 1.7404843018001635E9, 0.0, 2025-02-25 11:51:41.800
78.0, -116.14072317397222, -292.47700608475134, 14.772604824975133, -247.45235051820055, -0.01600000075995922, 0.0, 0.9920000471174717, 0.0, 0.0, 0.0, 0.0, 0.0, 1.7404843018002808E9, 0.0, 2025-02-25 11:51:41.800
78.0, 8.209080402739346, -90.94314722251147, 13.007372045889497, -136.4764291830361, -0.01600000075995922, 0.0, 0.9920000471174717, 0.0, 0.0, 0.0, 0.0, 0.0, 1.740484301800348E9, 0.0, 2025-02-25 11:51:41.800
79.0, -127.07806059438735, -143.64955729804933, 16.803370500914752, -242.6746283248067, -0.01600000075995922, 0.0, 0.9920000471174717, 0.0, 0.0, 0.0, 0.0, 0.0, 1.7404843018288484E9, 0.0, 2025-02-25 11:51:41.828
79.0, -256.5141281108372, -351.3804303868674, 8.291358201764524, -366.91597480280325, -0.01600000075995922, 0.0, 0.9920000471174717, 0.0, 0.0, 0.0, 0.0, 0.0, 1.740484301828941E9, 0.0, 2025-02-25 11:51:41.828
80.0, -120.04517872771248, -287.1177294482477, 12.921354346908629, -251.81307386653498, -0.01600000075995922, 0.0, 1.008000047877431, 0.0, 0.0, 0.0, 0.0, 0.0, 1.7404843018294797E9, 0.0, 2025-02-25 11:51:41.829
80.0, -5.542531734332442, -102.80984978191555, 16.1563678085804, -145.23153497930616, -0.01600000075995922, 0.0, 1.008000047877431, 0.0, 0.0, 0.0, 0.0, 0.0, 1.7404843018295689E9, 0.0, 2025-02-25 11:51:41.829
81.0, -149.0387531341985, -168.7143668010831, 13.777791436761618, -270.4321657959372, -0.01600000075995922, 0.0, 1.008000047877431, 0.0, 0.0, 0.0, 0.0, 0.0, 1.7404843018300507E9, 0.0, 2025-02-25 11:51:41.830
81.0, -303.62938775261864, -394.4977369760163, 10.8943285709247, -417.45698280399665, -0.01600000075995922, 0.0, 1.008000047877431, 0.0, 0.0, 0.0, 0.0, 0.0, 1.7404843018301425E9, 0.0, 2025-02-25 11:51:41.830
82.0, -149.28371658129618, -318.82460127258673, 15.011958422139287, -285.13184257177636, -0.01600000075995922, 0.0, 1.008000047877431, 0.0, 0.0, 0.0, 0.0, 0.0, 1.740484301859168E9, 0.0, 2025-02-25 11:51:41.859
82.0, -28.15396686643362, -129.22102326899767, 12.341669853776693, -170.64789507817477, -0.01600000075995922, 0.0, 1.008000047877431, 0.0, 0.0, 0.0, 0.0, 0.0, 1.7404843018593628E9, 0.0, 2025-02-25 11:51:41.859
83.0, -182.98582503199577, -203.12144639343023, 8.523231999017298, -297.7371753724292, -0.01600000075995922, 0.0, 1.008000047877431, 0.0, 0.0, 0.0, 0.0, 0.0, 1.7404843018595695E9, 0.0, 2025-02-25 11:51:41.859
83.0, -311.92448585433885, -400.8368674009107, 12.551104251295328, -423.61659803101793, -0.01600000075995922, 0.0, 1.008000047877431, 0.0, 0.0, 0.0, 0.0, 0.0, 1.7404843018596556E9, 0.0, 2025-02-25 11:51:41.859
84.0, -160.1369062527083, -327.51986866956577, 11.795644460245967, -288.452873732429, -0.01600000075995922, 0.0, 1.008000047877431, 0.0, 0.0, 0.0, 0.0, 0.0, 1.7404843018599408E9, 0.0, 2025-02-25 11:51:41.859
84.0, -27.7537975711748, -129.8381067616865, 12.999892245978117, -168.2281798068434, -0.01600000075995922, 0.0, 1.008000047877431, 0.0, 0.0, 0.0, 0.0, 0.0, 1.7404843018600316E9, 0.0, 2025-02-25 11:51:41.860
85.0, -176.86734870448709, -191.17246603500098, 13.515998439863324, -287.0223619993776, -0.01600000075995922, 0.0, 1.008000047877431, 0.0, 0.0, 0.0, 0.0, 0.0, 1.7404843018892784E9, 0.0, 2025-02-25 11:51:41.889
85.0, -316.3600072017871, -407.3891721232794, 7.554597910493612, -424.5478331199847, -0.01600000075995922, 0.0, 1.008000047877431, 0.0, 0.0, 0.0, 0.0, 0.0, 1.7404843018893719E9, 0.0, 2025-02-25 11:51:41.889
86.0, -164.51632910082117, -329.9059248412959, 11.993859157897532, -290.76787180500105, -0.01600000075995922, 0.0, 1.008000047877431, 0.0, 0.0, 0.0, 0.0, 0.0, 1.7404843018896177E9, 0.0, 2025-02-25 11:51:41.889
86.0, -26.1606001900509, -115.56664853077382, 13.721692937426269, -154.65608286764473, -0.01600000075995922, 0.0, 1.008000047877431, 0.0, 0.0, 0.0, 0.0, 0.0, 1.7404843018896935E9, 0.0, 2025-02-25 11:51:41.889
87.0, -185.77579039894044, -207.17923784535378, 14.967079622671008, -302.83091911207885, -0.01600000075995922, 0.0, 1.008000047877431, 0.0, 0.0, 0.0, 0.0, 0.0, 1.7404843018899107E9, 0.0, 2025-02-25 11:51:41.889
87.0, -331.2896878249012, -416.2452552183531, 7.921108106151223, -440.35265033273026, -0.01600000075995922, 0.0, 1.008000047877431, 0.0, 0.0, 0.0, 0.0, 0.0, 1.740484301889963E9, 0.0, 2025-02-25 11:51:41.889
88.0, -173.01712170010433, -338.0252476450987, 15.329849918372929, -301.26203108066693, -0.01600000075995922, 0.0, 1.008000047877431, 0.0, 0.0, 0.0, 0.0, 0.0, 1.7404843019187555E9, 0.0, 2025-02-25 11:51:41.918
88.0, -35.55148897878826, -140.0667331404984, 15.008218522183597, -168.14590200781822, -0.01600000075995922, 0.0, 1.008000047877431, 0.0, 0.0, 0.0, 0.0, 0.0, 1.7404843019188178E9, 0.0, 2025-02-25 11:51:41.918
89.0, -207.60558644030243, -225.86377802398056, 11.376775665208697, -322.8655631747097, -0.01600000075995922, 0.0, 1.008000047877431, 0.0, 0.0, 0.0, 0.0, 0.0, 1.7404843019194283E9, 0.0, 2025-02-25 11:51:41.919
89.0, -352.1508497777395, -433.68814861169085, 11.69840706139803, -453.98458567122, -0.01600000075995922, 0.0, 1.008000047877431, 0.0, 0.0, 0.0, 0.0, 0.0, 1.7404843019194827E9, 0.0, 2025-02-25 11:51:41.919
90.0, -200.3782297759317, -359.1257631951012, 11.417914564721286, -314.22078442713246, -0.01600000075995922, 0.0, 1.008000047877431, 0.0, 0.0, 0.0, 0.0, 0.0, 1.7404843019199169E9, 0.0, 2025-02-25 11:51:41.919
90.0, -50.25303570460528, -147.89434374775738, 10.613836074247956, -180.80172345787287, -0.01600000075995922, 0.0, 1.008000047877431, 0.0, 0.0, 0.0, 0.0, 0.0, 1.7404843019200208E9, 0.0, 2025-02-25 11:51:41.920
91.0, -215.89320474211127, -226.89973031170666, 7.577037310227752, -318.568418125622, -0.01600000075995922, -0.01600000075995922, 1.008000047877431, 0.0, 0.0, 0.0, 0.0, 0.0, 1.740484301949183E9, 0.0, 2025-02-25 11:51:41.949
91.0, -368.4568135845475, -446.91991465492174, 11.597429762594402, -457.36919513111934, -0.01600000075995922, -0.01600000075995922, 1.008000047877431, 0.0, 0.0, 0.0, 0.0, 0.0, 1.7404843019493515E9, 0.0, 2025-02-25 11:51:41.949
92.0, -194.42056914651766, -355.2287874412723, 11.810604060068727, -306.0117040243931, -0.01600000075995922, -0.01600000075995922, 1.008000047877431, 0.0, 0.0, 0.0, 0.0, 0.0, 1.7404843019494712E9, 0.0, 2025-02-25 11:51:41.949
92.0, -37.77298955246806, -128.42442457843572, 13.785271236672997, -162.60711017344147, -0.01600000075995922, -0.01600000075995922, 1.008000047877431, 0.0, 0.0, 0.0, 0.0, 0.0, 1.7404843019495573E9, 0.0, 2025-02-25 11:51:41.949
93.0, -215.8408461427316, -228.1039780974388, 10.123909180052578, -321.6388759892434, -0.01600000075995922, -0.01600000075995922, 1.008000047877431, 0.0, 0.0, 0.0, 0.0, 0.0, 1.7404843019497898E9, 0.0, 2025-02-25 11:51:41.949
93.0, -351.19717528903857, -429.64157685963437, 11.907841458916664, -454.7512651621364, -0.01600000075995922, -0.01600000075995922, 1.008000047877431, 0.0, 0.0, 0.0, 0.0, 0.0, 1.7404843019498785E9, 0.0, 2025-02-25 11:51:41.949
94.0, -172.9198843012564, -337.1501110554673, 10.737252772785723, -296.07104994216934, -0.01600000075995922, -0.01600000075995922, 1.008000047877431, 0.0, 0.0, 0.0, 0.0, 0.0, 1.7404843019788687E9, 0.0, 2025-02-25 11:51:41.978
94.0, -24.91895340476185, -127.7250632867217, 17.603709091432393, -158.65777582023293, -0.01600000075995922, -0.01600000075995922, 1.008000047877431, 0.0, 0.0, 0.0, 0.0, 0.0, 1.7404843019789696E9, 0.0, 2025-02-25 11:51:41.978
95.0, -206.86508624907583, -218.18576341494918, 9.551704486832023, -324.02493216097355, -0.01600000075995922, -0.01600000075995922, 1.008000047877431, 0.0, 0.0, 0.0, 0.0, 0.0, 1.7404843019794672E9, 0.0, 2025-02-25 11:51:41.979
95.0, -359.043485396076, -441.43348141992465, 11.021485169418156, -462.43675957107916, -0.01600000075995922, -0.01600000075995922, 1.008000047877431, 0.0, 0.0, 0.0, 0.0, 0.0, 1.7404843019795997E9, 0.0, 2025-02-25 11:51:41.979
96.0, -185.75522094918415, -353.9946204558946, 11.799384360201657, -305.4320195312612, -0.01600000075995922, -0.01600000075995922, 1.008000047877431, 0.0, 0.0, 0.0, 0.0, 0.0, 1.740484301980235E9, 0.0, 2025-02-25 11:51:41.980
96.0, -31.288003029301763, -133.01328182406723, 12.266871854662895, -162.28921867720783, -0.01600000075995922, -0.01600000075995922, 1.008000047877431, 0.0, 0.0, 0.0, 0.0, 0.0, 1.740484301980296E9, 0.0, 2025-02-25 11:51:41.980
97.0, -208.03193503525108, -224.59595193900168, 10.415621376596391, -320.232673605904, -0.01600000075995922, -0.01600000075995922, 1.008000047877431, 0.0, 0.0, 0.0, 0.0, 0.0, 1.7404843020092928E9, 0.0, 2025-02-25 11:51:42.009
97.0, -366.39986860891804, -443.84571689134464, 9.125355891883373, -471.07592846872285, -0.01600000075995922, -0.01600000075995922, 1.008000047877431, 0.0, 0.0, 0.0, 0.0, 0.0, 1.7404843020093887E9, 0.0, 2025-02-25 11:51:42.009
98.0, -186.20774884382263, -350.86806409293786, 8.43721430003643, -301.5761826769449, -0.01600000075995922, -0.01600000075995922, 1.008000047877431, 0.0, 0.0, 0.0, 0.0, 0.0, 1.7404843020095832E9, 0.0, 2025-02-25 11:51:42.009
98.0, -36.16857247147709, -128.83207367360592, 20.08700266201049, -159.31599821243435, -0.01600000075995922, -0.01600000075995922, 1.008000047877431, 0.0, 0.0, 0.0, 0.0, 0.0, 1.7404843020096655E9, 0.0, 2025-02-25 11:51:42.009
99.0, -216.08019973989576, -227.34851830638945, 9.334790289402008, -326.02577863726765, -0.01600000075995922, -0.01600000075995922, 1.008000047877431, 0.0, 0.0, 0.0, 0.0, 0.0, 1.7404843020100737E9, 0.0, 2025-02-25 11:51:42.010
99.0, -367.02817180147395, -442.2226003105752, 11.571250462904572, -466.25519742583856, -0.01600000075995922, -0.01600000075995922, 1.008000047877431, 0.0, 0.0, 0.0, 0.0, 0.0, 1.740484302010162E9, 0.0, 2025-02-25 11:51:42.010
100.0, -190.71058839047328, -339.98121532192454, 13.456160040572286, -299.29110380401835, -0.01600000075995922, -0.01600000075995922, 0.9920000471174717, 0.0, 0.0, 0.0, 0.0, 0.0, 1.74048430204086E9, 0.0, 2025-02-25 11:51:42.040
100.0, -30.18473254237324, -123.95150423143059, 11.874182359315455, -150.87130411248654, -0.01600000075995922, -0.01600000075995922, 0.9920000471174717, 0.0, 0.0, 0.0, 0.0, 0.0, 1.7404843020409544E9, 0.0, 2025-02-25 11:51:42.040
0.0, -205.86840291088447, -215.94743329146877, 12.88395534735173, -315.4624312124215, -0.01600000075995922, -0.01600000075995922, 0.9920000471174717, 0.0, 0.0, 0.0, 0.0, 0.0, 1.7404843020411682E9, 0.0, 2025-02-25 11:51:42.041
1.0, -368.1669713379815, -441.15485887322575, 11.006525569595397, -457.83481267560273, -0.01600000075995922, -0.01600000075995922, 0.9920000471174717, 0.0, 0.0, 0.0, 0.0, 0.0, 1.7404843020414145E9, 0.0, 2025-02-25 11:51:42.041
1.0, -169.60820289049298, -334.6125889355317, 14.439753728918731, -285.848033413291, -0.01600000075995922, -0.01600000075995922, 0.9920000471174717, 0.0, 0.0, 0.0, 0.0, 0.0, 1.740484302041495E9, 0.0, 2025-02-25 11:51:42.041
2.0, -7.074020766187459, -113.23108100844547, 14.421054229140282, -138.11263541365042, -0.01600000075995922, -0.01600000075995922, 0.9920000471174717, 0.0, 0.0, 0.0, 0.0, 0.0, 1.7404843020416234E9, 0.0, 2025-02-25 11:51:42.041
2.0, -195.8903498291038, -216.61313548358157, 12.513705251738429, -310.8997532664798, -0.01600000075995922, -0.01600000075995922, 0.9920000471174717, 0.0, 0.0, 0.0, 0.0, 0.0, 1.7404843020416958E9, 0.0, 2025-02-25 11:51:42.041
3.0, -361.5361287165433, -440.4218384819105, 10.393181976862252, -459.0727195609361, -0.01600000075995922, -0.01600000075995922, 0.9920000471174717, 0.0, 0.0, 0.0, 0.0, 0.0, 1.7404843020688202E9, 0.0, 2025-02-25 11:51:42.068
3.0, -163.7851786594838, -334.1151822414249, 12.775498248636723, -282.53074215259403, -0.01600000075995922, -0.01600000075995922, 0.9920000471174717, 0.0, 0.0, 0.0, 0.0, 0.0, 1.7404843020689595E9, 0.0, 2025-02-25 11:51:42.068
4.0, 2.6796383182518184, -107.52773357601836, 11.24961906671524, -130.87218909943476, -0.01600000075995922, -0.01600000075995922, 0.9920000471174717, 0.0, 0.0, 0.0, 0.0, 0.0, 1.740484302069344E9, 0.0, 2025-02-25 11:51:42.069
4.0, -193.45193505799398, -217.76128476997837, 14.11064253281802, -311.356021061074, -0.01600000075995922, -0.01600000075995922, 0.9920000471174717, 0.0, 0.0, 0.0, 0.0, 0.0, 1.7404843020694566E9, 0.0, 2025-02-25 11:51:42.069
5.0, -345.9070868017152, -432.88594007119536, 10.284724878147244, -453.5488873263821, -0.01600000075995922, -0.01600000075995922, 0.9920000471174717, 0.0, 0.0, 0.0, 0.0, 0.0, 1.7404843020992444E9, 0.0, 2025-02-25 11:51:42.099
5.0, -147.71482854988426, -319.1817617183551, 16.45929970499128, -270.5032238950953, -0.01600000075995922, -0.01600000075995922, 0.9920000471174717, 0.0, 0.0, 0.0, 0.0, 0.0, 1.7404843020993595E9, 0.0, 2025-02-25 11:51:42.099
6.0, 21.86906499089673, -93.66018454032019, 14.854882624000311, -109.56971895182505, -0.01600000075995922, -0.01600000075995922, 0.9920000471174717, 0.0, 0.0, 0.0, 0.0, 0.0, 1.740484302099458E9, 0.0, 2025-02-25 11:51:42.099
6.0, -170.40667153103277, -191.23791428422555, 13.029811445623636, -279.54069213801995, -0.01600000075995922, -0.01600000075995922, 0.9920000471174717, 0.0, 0.0, 0.0, 0.0, 0.0, 1.740484302099547E9, 0.0, 2025-02-25 11:51:42.099
7.0, -327.1215693242848, -412.9335738075897, 10.43058097641915, -429.6172675099224, -0.01600000075995922, -0.01600000075995922, 0.9920000471174717, 0.0, 0.0, 0.0, 0.0, 0.0, 1.7404843020998285E9, 0.0, 2025-02-25 11:51:42.099
7.0, -125.64941881131381, -303.31336620636284, 12.921354346908629, -252.64520160667598, -0.01600000075995922, -0.01600000075995922, 0.9920000471174717, 0.0, 0.0, 0.0, 0.0, 0.0, 1.7404843020999832E9, 0.0, 2025-02-25 11:51:42.099
8.0, 38.76967289065942, -73.24407068220899, 12.730619449168444, -84.86393984453753, -0.01600000075995922, -0.01600000075995922, 0.9920000471174717, 0.0, 0.0, 0.0, 0.0, 0.0, 1.740484302100479E9, 0.0, 2025-02-25 11:51:42.100
8.0, -159.03363576577976, -184.80154646048322, 15.909534411504865, -270.95014193980023, -0.01600000075995922, -0.01600000075995922, 0.9920000471174717, 0.0, 0.0, 0.0, 0.0, 0.0, 1.740484302100571E9, 0.0, 2025-02-25 11:51:42.100
9.0, -316.0327659556642, -406.815097480081, 10.06033088080585, -424.0971751753241, -0.01600000075995922, -0.01600000075995922, 0.9920000471174717, 0.0, 0.0, 0.0, 0.0, 0.0, 1.740484302128749E9, 0.0, 2025-02-25 11:51:42.128
9.0, -96.21640616003424, -280.03996878210455, 12.973712946288288, -223.89659064728767, -0.01600000075995922, -0.01600000075995922, 0.9920000471174717, 0.0, 0.0, 0.0, 0.0, 0.0, 1.740484302128844E9, 0.0, 2025-02-25 11:51:42.128
10.0, 79.684178405907, -53.542277715634555, 15.131635220721364, -60.50223153317347, -0.01600000075995922, -0.01600000075995922, 0.9920000471174717, 0.0, 0.0, 0.0, 0.0, 0.0, 1.7404843021294312E9, 0.0, 2025-02-25 11:51:42.129
10.0, -121.99740650458261, -163.12134641734883, 12.745579048991203, -246.47623662976548, -0.01600000075995922, -0.01600000075995922, 0.9920000471174717, 0.0, 0.0, 0.0, 0.0, 0.0, 1.7404843021294985E9, 0.0, 2025-02-25 11:51:42.129
11.0, -286.6483720038086, -382.13175777252764, 13.415021141059697, -398.9725272729993, -0.01600000075995922, -0.01600000075995922, 0.9920000471174717, 0.0, 0.0, 0.0, 0.0, 0.0, 1.740484302159362E9, 0.0, 2025-02-25 11:51:42.159
11.0, -60.04783368855715, -248.44529395643622, 12.263131954707205, -187.17825288232416, -0.01600000075995922, -0.01600000075995922, 0.9920000471174717, 0.0, 0.0, 0.0, 0.0, 0.0, 1.7404843021596513E9, 0.0, 2025-02-25 11:51:42.159
12.0, 116.94480166444555, -16.528487854171544, 16.08530970942229, -25.732381645124406, -0.01600000075995922, -0.01600000075995922, 0.9920000471174717, 0.0, 0.0, 0.0, 0.0, 0.0, 1.7404843021598933E9, 0.0, 2025-02-25 11:51:42.159
12.0, -81.57282788353041, -124.32736417697743, 11.724586361087859, -202.6333894492127, -0.01600000075995922, -0.01600000075995922, 0.9920000471174717, 0.0, 0.0, 0.0, 0.0, 0.0, 1.740484302159979E9, 0.0, 2025-02-25 11:51:42.159
13.0, -241.45916083920747, -337.33149620331824, 11.784424760378897, -350.40992634836584, -0.01600000075995922, -0.01600000075995922, 0.9920000471174717, 0.0, 0.0, 0.0, 0.0, 0.0, 1.740484302160066E9, 0.0, 2025-02-25 11:51:42.160
13.0, -474.30346213048324, -178.3408692870289, 14.08446323312819, -119.83761428017169, -0.01600000075995922, -0.01600000075995922, 0.9920000471174717, 0.0, 0.0, 0.0, 0.0, 0.0, 1.7404843021601448E9, 0.0, 2025-02-25 11:51:42.160
14.0, -270.2115116985515, 65.08360897889361, 12.364109253510833, 67.65292024845257, -0.01600000075995922, -0.01600000075995922, 0.9920000471174717, 0.0, 0.0, 0.0, 0.0, 0.0, 1.7404843021605935E9, 0.0, 2025-02-25 11:51:42.160
14.0, -505.03609001636505, -63.87562129320577, 13.085909944958985, -139.44403979787603, -0.01600000075995922, -0.01600000075995922, 0.9920000471174717, 0.0, 0.0, 0.0, 0.0, 0.0, 1.740484302160677E9, 0.0, 2025-02-25 11:51:42.160
15.0, -656.9751355662011, -270.51444359496236, 7.562077710404992, -283.3983989423141, -0.01600000075995922, -0.01600000075995922, 0.9920000471174717, 0.0, 0.0, 0.0, 0.0, 0.0, 1.74048430218993E9, 0.0, 2025-02-25 11:51:42.189
15.0, -866.3702641353011, -89.06197754479945, 14.129342032596469, -510.0344663071446, -0.01600000075995922, -0.01600000075995922, 0.9920000471174717, 0.0, 0.0, 0.0, 0.0, 0.0, 1.740484302190056E9, 0.0, 2025-02-25 11:51:42.190
16.0, -659.2863937388174, -329.7955977926031, 10.677414373494685, -318.77037272322923, -0.01600000075995922, -0.01600000075995922, 0.9920000471174717, 0.0, 0.0, 0.0, 0.0, 0.0, 1.7404843021901553E9, 0.0, 2025-02-25 11:51:42.190
16.0, -875.9574976717122, -454.5960593139753, 17.416714093647897, -518.5371288564056, -0.01600000075995922, -0.01600000075995922, 0.9920000471174717, 0.0, 0.0, 0.0, 0.0, 0.0, 1.740484302190241E9, 0.0, 2025-02-25 11:51:42.190
17.0, -1034.4077090444043, -680.8394371834584, 11.503932263702154, -677.5745045221411, -0.01600000075995922, -0.01600000075995922, 0.9920000471174717, 0.0, 0.0, 0.0, 0.0, 0.0, 1.7404843022187696E9, 0.0, 2025-02-25 11:51:42.218
17.0, -814.2173592532054, -543.8244624068029, 15.67766061425209, -471.6069942624308, -0.01600000075995922, -0.01600000075995922, 0.9920000471174717, 0.0, 0.0, 0.0, 0.0, 0.0, 1.7404843022189624E9, 0.0, 2025-02-25 11:51:42.218
18.0, -613.5436773807742, -300.3738048411906, 12.416467852890491, -275.9111192310229, -0.01600000075995922, -0.01600000075995922, 0.9920000471174717, 0.0, 0.0, 0.0, 0.0, 0.0, 1.7404843022192328E9, 0.0, 2025-02-25 11:51:42.219
18.0, -819.9225766356103, -409.4479870488867, 13.736652537249029, -459.6337045542896, -0.01600000075995922, -0.01600000075995922, 0.9920000471174717, 0.0, 0.0, 0.0, 0.0, 0.0, 1.7404843022193227E9, 0.0, 2025-02-25 11:51:42.219
19.0, -988.0778283933178, -633.0696950494312, 15.378468617796898, -618.6299413205124, -0.01600000075995922, -0.01600000075995922, 0.9920000471174717, 0.0, 0.0, 0.0, 0.0, 0.0, 1.7404843022200055E9, 0.0, 2025-02-25 11:51:42.220
19.0, -1205.165931171272, -453.25530517986044, 12.367849153466523, -853.1123187923804, -0.01600000075995922, -0.01600000075995922, 0.9920000471174717, 0.0, 0.0, 0.0, 0.0, 0.0, 1.7404843022201328E9, 0.0, 2025-02-25 11:51:42.220
20.0, -1448.150971192401, -662.1922960043885, 9.716260084882379, -627.2803299180232, -0.01600000075995922, -0.01600000075995922, 0.9920000471174717, 0.0, 0.0, 0.0, 0.0, 0.0, 1.740484302220549E9, 0.0, 2025-02-25 11:51:42.220
20.0, -1208.470132782124, -805.2434693095274, 10.976606369949877, -852.478405749891, -0.01600000075995922, -0.01600000075995922, 0.9920000471174717, 0.0, 0.0, 0.0, 0.0, 0.0, 1.7404843022206104E9, 0.0, 2025-02-25 11:51:42.220
21.0, -1368.779074432794, -1029.2765663051978, 7.921108106151223, -1005.6329187853262, -0.01600000075995922, 0.0, 0.9920000471174717, 0.0, 0.0, 0.0, 0.0, 0.0, 1.7404843022491982E9, 0.0, 2025-02-25 11:51:42.249
21.0, -1598.8932487564161, -865.0126804513857, 9.6713812854141, -765.5089022303, -0.01600000075995922, 0.0, 0.9920000471174717, 0.0, 0.0, 0.0, 0.0, 0.0, 1.7404843022493782E9, 0.0, 2025-02-25 11:51:42.249
22.0, -1408.6576276603155, -631.5288562676869, 6.649542121216655, -589.9860475598834, -0.01600000075995922, 0.0, 0.9920000471174717, 0.0, 0.0, 0.0, 0.0, 0.0, 1.7404843022494628E9, 0.0, 2025-02-25 11:51:42.249
22.0, -1189.6397365052253, -813.9873554059304, 13.515998439863324, -367.5087489457801, -0.01600000075995922, 0.0, 0.9920000471174717, 0.0, 0.0, 0.0, 0.0, 0.0, 1.7404843022495408E9, 0.0, 2025-02-25 11:51:42.249
23.0, -1348.1236069775186, -1020.4990211091936, 13.953566734679043, -510.5879715005867, -0.01600000075995922, 0.0, 0.9920000471174717, 0.0, 0.0, 0.0, 0.0, 0.0, 1.740484302279036E9, 0.0, 2025-02-25 11:51:42.279
23.0, -1527.1395282065496, -811.3301564874128, 14.963339722715318, -706.3923036307096, -0.01600000075995922, 0.0, 0.9920000471174717, 0.0, 0.0, 0.0, 0.0, 0.0, 1.740484302279173E9, 0.0, 2025-02-25 11:51:42.279
24.0, -1383.084191763308, -625.3131425413303, 14.166741032153368, -580.101491976995, -0.01600000075995922, 0.0, 0.9920000471174717, 0.0, 0.0, 0.0, 0.0, 0.0, 1.7404843022792797E9, 0.0, 2025-02-25 11:51:42.279
24.0, -1200.5565044758841, -828.3223919360898, 11.69840706139803, -377.44940302800387, -0.01600000075995922, 0.0, 0.9920000471174717, 0.0, 0.0, 0.0, 0.0, 0.0, 1.7404843022793813E9, 0.0, 2025-02-25 11:51:42.279
25.0, -998.1867779735476, -668.9951740237884, 8.339976901188493, -161.14106939081103, -0.01600000075995922, 0.0, 0.9920000471174717, 0.0, 0.0, 0.0, 0.0, 0.0, 1.7404843022799284E9, 0.0, 2025-02-25 11:51:42.279
25.0, -1234.0080396295525, -497.6628772537224, 13.059730645269156, 81.12216993886977, -0.01600000075995922, 0.0, 0.9920000471174717, 0.0, 0.0, 0.0, 0.0, 0.0, 1.740484302280066E9, 0.0, 2025-02-25 11:51:42.280
26.0, -1408.1116022667848, -629.6327269901522, 13.25794534292072, -104.9041937571019, -0.01600000075995922, 0.0, 0.9920000471174717, 0.0, 0.0, 0.0, 0.0, 0.0, 1.7404843022805426E9, 0.0, 2025-02-25 11:51:42.280
26.0, -1612.366238346789, -745.3452316191979, 10.84570987150073, -292.6845705322921, -0.01600000075995922, 0.0, 0.9920000471174717, 0.0, 0.0, 0.0, 0.0, 0.0, 1.7404843022806318E9, 0.0, 2025-02-25 11:51:42.280
27.0, -1737.1162112187594, -921.4141116831452, 12.562323951162398, -406.3644395354204, -0.01600000075995922, 0.0, 0.9920000471174717, 0.0, 0.0, 0.0, 0.0, 0.0, 1.7404843023092651E9, 0.0, 2025-02-25 11:51:42.309
27.0, -1608.8900013379753, -895.3507488919422, 12.08361675683409, -304.2464712453075, -0.01600000075995922, 0.0, 0.9920000471174717, 0.0, 0.0, 0.0, 0.0, 0.0, 1.7404843023093846E9, 0.0, 2025-02-25 11:51:42.309
28.0, -1679.1664614053443, -903.1746195992455, 13.837629836052656, -390.21555152675137, -0.01600000075995922, 0.0, 0.9920000471174717, 0.0, 0.0, 0.0, 0.0, 0.0, 1.740484302309513E9, 0.0, 2025-02-25 11:51:42.309
28.0, -1465.4293089876883, -1057.7035458683968, 11.462793364189565, -150.67308941483498, -0.01600000075995922, 0.0, 0.9920000471174717, 0.0, 0.0, 0.0, 0.0, 0.0, 1.7404843023095813E9, 0.0, 2025-02-25 11:51:42.309
29.0, -1622.1816057804972, -1254.2857771893032, 9.435767588205636, -287.4468406443484, -0.01600000075995922, 0.0, 0.9920000471174717, 0.0, 0.0, 0.0, 0.0, 0.0, 1.7404843023403287E9, 0.0, 2025-02-25 11:51:42.340
29.0, -1731.8298626313917, -1479.025715276599, 7.300284713506699, -412.73535910993814, -0.01600000075995922, 0.0, 0.9920000471174717, 0.0, 0.0, 0.0, 0.0, 0.0, 1.7404843023404653E9, 0.0, 2025-02-25 11:51:42.340
30.0, -1720.1333255199715, -1405.9798592920415, 8.751365896314383, -413.352442602627, -0.01600000075995922, 0.0, 0.9920000471174717, 0.0, 0.0, 0.0, 0.0, 0.0, 1.740484302340692E9, 0.0, 2025-02-25 11:51:42.340
30.0, -1918.8678692653775, -1488.2239992176183, 14.249018831178546, -595.7249240418896, -0.01600000075995922, 0.0, 0.9920000471174717, 0.0, 0.0, 0.0, 0.0, 0.0, 1.7404843023407948E9, 0.0, 2025-02-25 11:51:42.340
31.0, -2080.1080460050143, -1703.9395587118343, 13.407541341148317, -736.3171131261624, -0.01600000075995922, 0.0, 0.9920000471174717, 0.0, 0.0, 0.0, 0.0, 0.0, 1.74048430234121E9, 0.0, 2025-02-25 11:51:42.341
31.0, -1870.5689312876202, -1599.3495165510103, 8.45217389985919, -550.2570903305896, -0.01600000075995922, 0.0, 0.9920000471174717, 0.0, 0.0, 0.0, 0.0, 0.0, 1.7404843023413925E9, 0.0, 2025-02-25 11:51:42.341
32.0, -1991.4013589560054, -1668.3731101332232, 12.633382050320506, -678.0756511162035, -0.01600000075995922, 0.0, 0.9920000471174717, 0.0, 0.0, 0.0, 0.0, 0.0, 1.7404843023415196E9, 0.0, 2025-02-25 11:51:42.341
32.0, -1791.2026443779469, -1866.0417823912576, 13.725432837381959, -461.1820231359452, -0.01600000075995922, 0.0, 0.9920000471174717, 0.0, 0.0, 0.0, 0.0, 0.0, 1.7404843023416283E9, 0.0, 2025-02-25 11:51:42.341
33.0, -1553.0869540991262, -1667.6326099419966, 10.43806077633053, -694.3292563236319, -0.01600000075995922, 0.0, 0.9920000471174717, 0.0, 0.0, 0.0, 0.0, 0.0, 1.74048430236911E9, 0.0, 2025-02-25 11:51:42.369
33.0, -1721.0739103588276, -1449.9928719205782, 11.414174664765596, -875.4395215278491, -0.01600000075995922, 0.0, 0.9920000471174717, 0.0, 0.0, 0.0, 0.0, 0.0, 1.740484302369233E9, 0.0, 2025-02-25 11:51:42.369
34.0, -1693.1499473396689, -1372.47035568906, 10.808310871943831, -862.0001910370775, -0.01600000075995922, 0.0, 0.9920000471174717, 0.0, 0.0, 0.0, 0.0, 0.0, 1.7404843023694825E9, 0.0, 2025-02-25 11:51:42.369
34.0, -1564.0130718196742, -1134.3004368608817, 9.738699484616518, -720.0915571684018, -0.01600000075995922, 0.0, 0.9920000471174717, 0.0, 0.0, 0.0, 0.0, 0.0, 1.740484302369619E9, 0.0, 2025-02-25 11:51:42.369
35.0, -1339.8397285756655, -942.570725732483, 10.273505178280175, -476.7400069516152, -0.01600000075995922, 0.0, 0.9920000471174717, 0.0, 0.0, 0.0, 0.0, 0.0, 1.7404843023990016E9, 0.0, 2025-02-25 11:51:42.399
35.0, -1531.0813827598467, -750.3623074097559, 12.581023450940847, -685.9668400227092, -0.01600000075995922, 0.0, 0.9920000471174717, 0.0, 0.0, 0.0, 0.0, 0.0, 1.740484302399093E9, 0.0, 2025-02-25 11:51:42.399
36.0, -1379.3405519076623, -550.0626155328937, 12.44638705253601, -545.0754589419812, -0.01600000075995922, 0.0, 0.9920000471174717, 0.0, 0.0, 0.0, 0.0, 0.0, 1.7404843023991785E9, 0.0, 2025-02-25 11:51:42.399
36.0, -1228.841367840767, -774.7184058711864, 11.589949962683022, -371.0149051542394, -0.01600000075995922, 0.0, 0.9920000471174717, 0.0, 0.0, 0.0, 0.0, 0.0, 1.740484302399252E9, 0.0, 2025-02-25 11:51:42.399
37.0, -1394.7788589247502, -979.3264624970034, 9.308610989712179, -511.99604383390397, -0.01600000075995922, 0.0, 0.9920000471174717, 0.0, 0.0, 0.0, 0.0, 0.0, 1.7404843024000971E9, 0.0, 2025-02-25 11:51:42.400
37.0, -1605.5540105774999, -805.092003361322, 10.09398998040706, -741.1715032686479, -0.01600000075995922, 0.0, 0.9920000471174717, 0.0, 0.0, 0.0, 0.0, 0.0, 1.7404843024002464E9, 0.0, 2025-02-25 11:51:42.400
38.0, -1408.481852362398, -564.1844777655788, 16.07409000955522, -556.2278406098485, -0.01600000075995922, 0.0, 0.9920000471174717, 0.0, 0.0, 0.0, 0.0, 0.0, 1.7404843024006207E9, 0.0, 2025-02-25 11:51:42.400
38.0, -1178.5434533366933, -722.3298872918822, 13.912427835166454, -313.0464558410458, -0.01600000075995922, 0.0, 0.9920000471174717, 0.0, 0.0, 0.0, 0.0, 0.0, 1.7404843024006917E9, 0.0, 2025-02-25 11:51:42.400
39.0, -1414.791063587647, -508.94615542003885, 11.855482859537005, -524.6855243835598, -0.01600000075995922, 0.0, 0.9920000471174717, 0.0, 0.0, 0.0, 0.0, 0.0, 1.7404843024292333E9, 0.0, 2025-02-25 11:51:42.429
39.0, -1650.46646914538, -352.09101137844846, 12.397768353112042, -285.799414713867, -0.01600000075995922, 0.0, 0.9920000471174717, 0.0, 0.0, 0.0, 0.0, 0.0, 1.7404843024293857E9, 0.0, 2025-02-25 11:51:42.429
40.0, -1444.6354652340524, -108.80490941088647, 10.105209680274129, -93.94815683690831, -0.01600000075995922, 0.0, 0.9920000471174717, 0.0, 0.0, 0.0, 0.0, 0.0, 1.7404843024294643E9, 0.0, 2025-02-25 11:51:42.429
40.0, -1254.613018435426, -297.1051322799176, 7.513459010981023, 114.56809524260461, -0.01600000075995922, 0.0, 0.9920000471174717, 0.0, 0.0, 0.0, 0.0, 0.0, 1.740484302429525E9, 0.0, 2025-02-25 11:51:42.429
41.0, -1463.9034298057668, -63.5483800470829, 8.968280093744397, -85.22297024028376, -0.01600000075995922, 0.0, 0.9920000471174717, 0.0, 0.0, 0.0, 0.0, 0.0, 1.740484302458993E9, 0.0, 2025-02-25 11:51:42.458
41.0, -1672.5056995842606, 111.87910717446357, 6.772958819754422, -312.90620959270746, -0.01600000075995922, 0.0, 0.9920000471174717, 0.0, 0.0, 0.0, 0.0, 0.0, 1.740484302459121E9, 0.0, 2025-02-25 11:51:42.459
42.0, -1464.2362809018232, -124.10858002956957, 9.533004987053573, -114.91777588846162, -0.01600000075995922, 0.0, 0.9920000471174717, 0.0, 0.0, 0.0, 0.0, 0.0, 1.740484302459335E9, 0.0, 2025-02-25 11:51:42.459
42.0, -1245.640998441726, -293.75044201966375, 13.142008444294333, 111.46397827938199, -0.01600000075995922, 0.0, 0.9920000471174717, 0.0, 0.0, 0.0, 0.0, 0.0, 1.740484302459446E9, 0.0, 2025-02-25 11:51:42.459
43.0, -1456.7415213906206, -50.529788301326334, 12.139715256169438, -83.34554046252742, -0.01600000075995922, 0.0, 0.9920000471174717, 0.0, 0.0, 0.0, 0.0, 0.0, 1.7404843024599624E9, 0.0, 2025-02-25 11:51:42.459
43.0, -1654.000674603507, 137.75547496788204, 14.765125025063753, -295.3548591006547, -0.01600000075995922, 0.0, 0.9920000471174717, 0.0, 0.0, 0.0, 0.0, 0.0, 1.740484302460234E9, 0.0, 2025-02-25 11:51:42.460
44.0, -1434.317081256304, -89.58182363864034, 14.86236242391169, -89.17604449344799, -0.01600000075995922, 0.0, 0.9920000471174717, 0.0, 0.0, 0.0, 0.0, 0.0, 1.7404843024606364E9, 0.0, 2025-02-25 11:51:42.460
44.0, -1210.2765044607222, -249.14839514810592, 16.702393202111125, 145.31007287837565, -0.01600000075995922, 0.0, 0.9920000471174717, 0.0, 0.0, 0.0, 0.0, 0.0, 1.7404843024607434E9, 0.0, 2025-02-25 11:51:42.460
45.0, -1408.3883548635058, -494.19225009484217, 12.225732955150306, -37.75616000266746, -0.01600000075995922, 0.0, 0.9920000471174717, 0.0, 0.0, 0.0, 0.0, 0.0, 1.74048430248882E9, 0.0, 2025-02-25 11:51:42.488
45.0, -1650.2345953481272, -347.76020722975954, 11.941500558517873, 202.20330095430836, -0.01600000075995922, 0.0, 0.9920000471174717, 0.0, 0.0, 0.0, 0.0, 0.0, 1.7404843024889317E9, 0.0, 2025-02-25 11:51:42.488
46.0, -1471.6412828140892, -124.56484782416373, 12.150934956036508, 360.1000071335584, -0.01600000075995922, 0.0, 0.9920000471174717, 0.0, 0.0, 0.0, 0.0, 0.0, 1.7404843024896936E9, 0.0, 2025-02-25 11:51:42.489
46.0, -1302.674472765997, -330.8240702804178, 14.637968426570296, 543.9665786051191, -0.01600000075995922, 0.0, 0.9920000471174717, 0.0, 0.0, 0.0, 0.0, 0.0, 1.7404843024897635E9, 0.0, 2025-02-25 11:51:42.489
47.0, -1518.3152342610992, -105.40908025112003, 9.596583286300302, 334.9678794313222, -0.01600000075995922, 0.0, 0.9920000471174717, 0.0, 0.0, 0.0, 0.0, 0.0, 1.7404843025193E9, 0.0, 2025-02-25 11:51:42.519
47.0, -1714.5870538856834, 68.97871478274465, 9.925694482401013, 123.3736896882765, -0.01600000075995922, 0.0, 0.9920000471174717, 0.0, 0.0, 0.0, 0.0, 0.0, 1.7404843025197048E9, 0.0, 2025-02-25 11:51:42.519
48.0, -1500.0121638779528, -149.08363193366677, 12.618422450497746, 337.4249937022105, -0.01600000075995922, 0.0, 0.9920000471174717, 0.0, 0.0, 0.0, 0.0, 0.0, 1.7404843025200825E9, 0.0, 2025-02-25 11:51:42.520
48.0, -1306.0852615255862, -329.88535539153963, 12.356629453599453, 549.625047238078, -0.01600000075995922, 0.0, 0.9920000471174717, 0.0, 0.0, 0.0, 0.0, 0.0, 1.740484302520152E9, 0.0, 2025-02-25 11:51:42.520
49.0, -1542.258073777426, -116.9092726148665, 9.046817992813885, 327.2262865230441, -0.01600000075995922, 0.0, 0.9920000471174717, 0.0, 0.0, 0.0, 0.0, 0.0, 1.740484302520322E9, 0.0, 2025-02-25 11:51:42.520
49.0, -1752.861190032214, 58.46585600730032, 13.209326643496752, 104.46475551230833, -0.01600000075995922, 0.0, 0.9920000471174717, 0.0, 0.0, 0.0, 0.0, 0.0, 1.7404843025203998E9, 0.0, 2025-02-25 11:51:42.520
50.0, -1520.488116135355, -168.35907630529255, 10.408141576685011, 316.50399335008115, -0.01600000075995922, 0.0, 0.9920000471174717, 0.0, 0.0, 0.0, 0.0, 0.0, 1.7404843025204823E9, 0.0, 2025-02-25 11:51:42.520
50.0, -1328.5433607595041, -353.3195685138926, 15.071796821430326, 529.36226927815, -0.01600000075995922, 0.0, 0.9920000471174717, 0.0, 0.0, 0.0, 0.0, 0.0, 1.740484302520563E9, 0.0, 2025-02-25 11:51:42.520
51.0, -1558.2461460880004, -130.70950345136225, 7.3451635129749775, 313.8449244815856, -0.01600000075995922, -0.01600000075995922, 0.9920000471174717, 0.0, 0.0, 0.0, 0.0, 0.0, 1.7404843025487866E9, 0.0, 2025-02-25 11:51:42.548
51.0, -1758.179327769205, 53.19633696973324, 11.477752964012325, 99.28499407367781, -0.01600000075995922, -0.01600000075995922, 0.9920000471174717, 0.0, 0.0, 0.0, 0.0, 0.0, 1.7404843025489392E9, 0.0, 2025-02-25 11:51:42.548
52.0, -1525.241528979037, -170.58805667888373, 12.50248555187136, 309.3346051350236, -0.01600000075995922, -0.01600000075995922, 0.9920000471174717, 0.0, 0.0, 0.0, 0.0, 0.0, 1.7404843025493844E9, 0.0, 2025-02-25 11:51:42.549
52.0, -1334.4449228895828, -353.386886713095, 14.394874929450452, 521.1045701759867, -0.01600000075995922, -0.01600000075995922, 0.9920000471174717, 0.0, 0.0, 0.0, 0.0, 0.0, 1.7404843025494766E9, 0.0, 2025-02-25 11:51:42.549
53.0, -1572.9963115132414, -139.59176584612578, 12.667041149921715, 294.56574021000415, -0.01600000075995922, -0.01600000075995922, 0.9920000471174717, 0.0, 0.0, 0.0, 0.0, 0.0, 1.7404843025790446E9, 0.0, 2025-02-25 11:51:42.579
53.0, -1770.2442450262606, 49.318060715682805, 9.895775282755494, 92.19788365764543, -0.01600000075995922, -0.01600000075995922, 0.9920000471174717, 0.0, 0.0, 0.0, 0.0, 0.0, 1.7404843025791588E9, 0.0, 2025-02-25 11:51:42.579
54.0, -1534.105091874022, -161.69831448420882, 12.753058848902583, 318.1794685302302, -0.01600000075995922, -0.01600000075995922, 0.9920000471174717, 0.0, 0.0, 0.0, 0.0, 0.0, 1.7404843025793183E9, 0.0, 2025-02-25 11:51:42.579
54.0, -1332.4440764132887, -340.7273253630847, 16.4518199050799, 528.2664785911329, -0.01600000075995922, -0.01600000075995922, 0.9920000471174717, 0.0, 0.0, 0.0, 0.0, 0.0, 1.740484302579419E9, 0.0, 2025-02-25 11:51:42.579
55.0, -1095.895404215902, -137.42636377178133, 11.952720258384943, 298.6310114618391, -0.01600000075995922, -0.01600000075995922, 0.9920000471174717, 0.0, 0.0, 0.0, 0.0, 0.0, 1.7404843025804546E9, 0.0, 2025-02-25 11:51:42.580
55.0, -1289.190263475757, 38.68178524170071, 12.117275856435299, 88.24854930443689, -0.01600000075995922, -0.01600000075995922, 0.9920000471174717, 0.0, 0.0, 0.0, 0.0, 0.0, 1.7404843025805347E9, 0.0, 2025-02-25 11:51:42.580
56.0, -1534.1237913738005, -165.58781043812633, 14.282677930779755, 315.49422036204487, -0.01600000075995922, -0.01600000075995922, 0.9920000471174717, 0.0, 0.0, 0.0, 0.0, 0.0, 1.7404843025807202E9, 0.0, 2025-02-25 11:51:42.580
56.0, -1327.4438301725313, -341.14993405807763, 17.880461688153446, 532.8740353365429, -0.01600000075995922, -0.01600000075995922, 0.9920000471174717, 0.0, 0.0, 0.0, 0.0, 0.0, 1.7404843025808713E9, 0.0, 2025-02-25 11:51:42.580
57.0, -1570.1203284473158, -134.99916870053858, 13.242985743097961, 311.15967631340027, -0.01600000075995922, -0.01600000075995922, 0.9920000471174717, 0.0, 0.0, 0.0, 0.0, 0.0, 1.740484302609019E9, 0.0, 2025-02-25 11:51:42.609
57.0, -1779.2835832191631, 47.22371674049646, 15.67766061425209, 91.3975450671278, -0.01600000075995922, -0.01600000075995922, 0.9920000471174717, 0.0, 0.0, 0.0, 0.0, 0.0, 1.7404843026090991E9, 0.0, 2025-02-25 11:51:42.609
58.0, -2004.2722246535122, -154.38681007083505, 12.09109655674547, 330.16958778817207, -0.01600000075995922, -0.01600000075995922, 0.9920000471174717, 0.0, 0.0, 0.0, 0.0, 0.0, 1.7404843026092794E9, 0.0, 2025-02-25 11:51:42.609
58.0, -1806.3473692485131, -330.6707343822345, 10.367002677172422, 545.3989602881484, -0.01600000075995922, -0.01600000075995922, 0.9920000471174717, 0.0, 0.0, 0.0, 0.0, 0.0, 1.740484302609366E9, 0.0, 2025-02-25 11:51:42.609
59.0, -1569.8847147501074, -129.79696786217391, 6.642062321305275, 305.90885677561164, -0.01600000075995922, -0.01600000075995922, 0.9920000471174717, 0.0, 0.0, 0.0, 0.0, 0.0, 1.740484302640949E9, 0.0, 2025-02-25 11:51:42.640
59.0, -1762.8055840143934, 56.162077634595335, 12.925094246864319, 102.38911103690043, -0.01600000075995922, -0.01600000075995922, 0.9920000471174717, 0.0, 0.0, 0.0, 0.0, 0.0, 1.740484302641137E9, 0.0, 2025-02-25 11:51:42.641
60.0, -1983.9944870937616, -131.00495554786175, 11.010265469551086, -134.82900325255468, -0.01600000075995922, -0.01600000075995922, 0.9920000471174717, 0.0, 0.0, 0.0, 0.0, 0.0, 1.7404843026415372E9, 0.0, 2025-02-25 11:51:42.641
60.0, -1773.7279618349858, -304.8542049881071, 14.727726025506854, 79.43547505885363, -0.01600000075995922, -0.01600000075995922, 0.9920000471174717, 0.0, 0.0, 0.0, 0.0, 0.0, 1.740484302641659E9, 0.0, 2025-02-25 11:51:42.641
61.0, -1545.0069002448581, -108.52815681416541, 10.142608679831028, -161.54684853600338, -0.01600000075995922, 0.0, 0.9920000471174717, 0.0, 0.0, 0.0, 0.0, 0.0, 1.740484302641785E9, 0.0, 2025-02-25 11:51:42.641
61.0, -1741.0244066724554, 65.29491332639009, 9.439507488161325, -369.48341612238437, -0.01600000075995922, 0.0, 0.9920000471174717, 0.0, 0.0, 0.0, 0.0, 0.0, 1.740484302641836E9, 0.0, 2025-02-25 11:51:42.641
62.0, -1964.3974113259465, -126.51707560103387, 11.65726816188544, -126.4852864514105, -0.01600000075995922, 0.0, 0.9920000471174717, 0.0, 0.0, 0.0, 0.0, 0.0, 1.7404843026418889E9, 0.0, 2025-02-25 11:51:42.641
62.0, -1767.3177733109333, -310.4079564223066, 10.516598675400019, 89.84361663553864, -0.01600000075995922, 0.0, 0.9920000471174717, 0.0, 0.0, 0.0, 0.0, 0.0, 1.740484302641937E9, 0.0, 2025-02-25 11:51:42.641
63.0, -1545.5491857384332, -115.76860312838107, 9.218853390775621, 321.4032622920349, -0.01600000075995922, 0.0, 0.9920000471174717, 0.0, 0.0, 0.0, 0.0, 0.0, 1.740484302668636E9, 0.0, 2025-02-25 11:51:42.668
63.0, -1743.006553648971, 61.62607146985829, 12.334190053865314, 114.43158889422193, -0.01600000075995922, 0.0, 0.9920000471174717, 0.0, 0.0, 0.0, 0.0, 0.0, 1.7404843026687071E9, 0.0, 2025-02-25 11:51:42.668
64.0, -1972.494294730015, -134.14647151064128, 12.10231625661254, 355.956197982654, -0.01600000075995922, 0.0, 0.9920000471174717, 0.0, 0.0, 0.0, 0.0, 0.0, 1.7404843026693172E9, 0.0, 2025-02-25 11:51:42.669
64.0, -1771.046453566756, -316.855543945916, 13.179407443851233, 565.5607609492727, -0.01600000075995922, 0.0, 0.9920000471174717, 0.0, 0.0, 0.0, 0.0, 0.0, 1.7404843026693769E9, 0.0, 2025-02-25 11:51:42.669
65.0, -1558.0441914903931, -136.02016138844192, 9.360969589091837, 800.774288862478, -0.01600000075995922, 0.0, 0.9920000471174717, 0.0, 0.0, 0.0, 0.0, 0.0, 1.7404843026987994E9, 0.0, 2025-02-25 11:51:42.698
65.0, -1763.3590892078355, 38.13201994821429, 5.62854943331331, 581.4272865112871, -0.01600000075995922, 0.0, 0.9920000471174717, 0.0, 0.0, 0.0, 0.0, 0.0, 1.7404843026988792E9, 0.0, 2025-02-25 11:51:42.698
66.0, -1983.313825301826, -154.39054997079074, 10.610096174292266, 345.2376447096467, -0.01600000075995922, 0.0, 0.9920000471174717, 0.0, 0.0, 0.0, 0.0, 0.0, 1.7404843026993222E9, 0.0, 2025-02-25 11:51:42.699
66.0, -1784.435295408126, -336.5573369124904, 11.395475164987147, 555.4218921693973, -0.01600000075995922, 0.0, 0.9920000471174717, 0.0, 0.0, 0.0, 0.0, 0.0, 1.7404843026994066E9, 0.0, 2025-02-25 11:51:42.699
67.0, -1560.8752957568504, -151.06203901022673, 9.461946887895465, 782.8377286749892, -0.01600000075995922, 0.0, 0.9920000471174717, 0.0, 0.0, 0.0, 0.0, 0.0, 1.7404843026998715E9, 0.0, 2025-02-25 11:51:42.699
67.0, -1757.8315170733258, 33.37860710453242, 12.221993055194616, 577.8893411532044, -0.01600000075995922, 0.0, 0.9920000471174717, 0.0, 0.0, 0.0, 0.0, 0.0, 1.7404843026999843E9, 0.0, 2025-02-25 11:51:42.699
68.0, -1976.3987502837554, -150.46739491727203, 12.180854155682027, 346.8009228911251, -0.01600000075995922, 0.0, 0.9920000471174717, 0.0, 0.0, 0.0, 0.0, 0.0, 1.7404843027004511E9, 0.0, 2025-02-25 11:51:42.700
68.0, -1773.96731543215, -329.61982249468565, 10.49041937571019, 561.7011841950007, -0.01600000075995922, 0.0, 0.9920000471174717, 0.0, 0.0, 0.0, 0.0, 0.0, 1.7404843027005298E9, 0.0, 2025-02-25 11:51:42.700
69.0, -1564.2673850166611, -142.0713195167482, 7.65557520929724, 785.7249314407818, -0.01600000075995922, 0.0, 0.9920000471174717, 0.0, 0.0, 0.0, 0.0, 0.0, 1.7404843027288747E9, 0.0, 2025-02-25 11:51:42.728
69.0, -1759.7014670511708, 37.55981525499374, 11.193520567379892, 578.5475635454059, -0.01600000075995922, 0.0, 0.9920000471174717, 0.0, 0.0, 0.0, 0.0, 0.0, 1.740484302729208E9, 0.0, 2025-02-25 11:51:42.729
70.0, -1956.4501239201054, -146.08049226924777, 12.199553655460477, 358.96307754702866, -0.01600000075995922, 0.0, 1.008000047877431, 0.0, 0.0, 0.0, 0.0, 0.0, 1.7404843027292912E9, 0.0, 2025-02-25 11:51:42.729
70.0, -1752.5975270853378, -319.84372401051223, 12.87273564748466, 570.9948355848901, -0.01600000075995922, 0.0, 1.008000047877431, 0.0, 0.0, 0.0, 0.0, 0.0, 1.7404843027293355E9, 0.0, 2025-02-25 11:51:42.729
71.0, -1548.784199200105, -139.0980990519747, 11.612389362417161, 795.033542430494, -0.01600000075995922, 0.0, 1.008000047877431, 0.0, 0.0, 0.0, 0.0, 0.0, 1.740484302759079E9, 0.0, 2025-02-25 11:51:42.759
71.0, -1745.0971577242017, 39.257729834876955, 13.467379740439355, 589.8046624120325, -0.01600000075995922, 0.0, 1.008000047877431, 0.0, 0.0, 0.0, 0.0, 0.0, 1.740484302759198E9, 0.0, 2025-02-25 11:51:42.759
72.0, -1950.3241677926853, -138.5071948589757, 11.047664469107985, 372.9241240816191, -0.01600000075995922, 0.0, 1.008000047877431, 0.0, 0.0, 0.0, 0.0, 0.0, 1.740484302759317E9, 0.0, 2025-02-25 11:51:42.759
72.0, -1760.57847359078, -321.739853288047, 8.900961894541979, 578.3624384975992, -0.01600000075995922, 0.0, 1.008000047877431, 0.0, 0.0, 0.0, 0.0, 0.0, 1.7404843027593796E9, 0.0, 2025-02-25 11:51:42.759
73.0, -1552.004253061954, -146.38342416565865, 14.204140031710267, 798.8706797850318, -0.01600000075995922, 0.0, 1.008000047877431, 0.0, 0.0, 0.0, 0.0, 0.0, 1.740484302759973E9, 0.0, 2025-02-25 11:51:42.759
73.0, -1747.7188275931403, 41.76720270514488, 11.907841458916664, 601.0243622791022, -0.01600000075995922, 0.0, 1.008000047877431, 0.0, 0.0, 0.0, 0.0, 0.0, 1.7404843027601051E9, 0.0, 2025-02-25 11:51:42.760
74.0, -1947.6763186240569, -139.04948035255075, 11.518891863524914, 381.9185834750533, -0.01600000075995922, 0.0, 1.008000047877431, 0.0, 0.0, 0.0, 0.0, 0.0, 1.740484302760584E9, 0.0, 2025-02-25 11:51:42.760
74.0, -1746.733363954816, -317.5212461380288, 17.76078488957137, 580.0678328773938, -0.01600000075995922, 0.0, 1.008000047877431, 0.0, 0.0, 0.0, 0.0, 0.0, 1.7404843027606578E9, 0.0, 2025-02-25 11:51:42.760
75.0, -1551.001959873829, -141.9217235185206, 6.657021921128035, 798.4293715902604, -0.01600000075995922, 0.0, 1.008000047877431, 0.0, 0.0, 0.0, 0.0, 0.0, 1.7404843027897382E9, 0.0, 2025-02-25 11:51:42.789
75.0, -1743.9789276374504, 46.63281254749745, 13.474859540350735, 592.0149432858452, -0.01600000075995922, 0.0, 1.008000047877431, 0.0, 0.0, 0.0, 0.0, 0.0, 1.7404843027901285E9, 0.0, 2025-02-25 11:51:42.790
76.0, -1934.829762276262, -120.60803367104381, 7.9061485063284636, 384.86936454009265, -0.01600000075995922, 0.0, 1.008000047877431, 0.0, 0.0, 0.0, 0.0, 0.0, 1.740484302790204E9, 0.0, 2025-02-25 11:51:42.790
76.0, -1739.5041373404674, -302.67758321389556, 14.645448226481676, 583.2056089402176, -0.01600000075995922, 0.0, 1.008000047877431, 0.0, 0.0, 0.0, 0.0, 0.0, 1.7404843027902584E9, 0.0, 2025-02-25 11:51:42.790
77.0, -1547.6435297136195, -133.00954192411155, 12.315490554086864, 804.1177594228648, -0.01600000075995922, 0.0, 1.008000047877431, 0.0, 0.0, 0.0, 0.0, 0.0, 1.7404843028191772E9, 0.0, 2025-02-25 11:51:42.819
77.0, -1737.953948808834, 60.33954588510096, 9.996752581559122, 609.6485715769231, -0.01600000075995922, 0.0, 1.008000047877431, 0.0, 0.0, 0.0, 0.0, 0.0, 1.7404843028194091E9, 0.0, 2025-02-25 11:51:42.819
78.0, -1926.0409973803908, -111.41535957995802, 11.365555965341628, 397.61120368912816, -0.01600000075995922, 0.0, 1.008000047877431, 0.0, 0.0, 0.0, 0.0, 0.0, 1.7404843028196323E9, 0.0, 2025-02-25 11:51:42.819
78.0, -1729.4101473600604, -293.5036086225882, 12.233212755061686, 606.6360821626149, -0.01600000075995922, 0.0, 1.008000047877431, 0.0, 0.0, 0.0, 0.0, 0.0, 1.7404843028197489E9, 0.0, 2025-02-25 11:51:42.819
79.0, -1548.6944416011684, -123.5027162367478, 10.277245078235865, 812.2221226268448, -0.01600000075995922, 0.0, 1.008000047877431, 0.0, 0.0, 0.0, 0.0, 0.0, 1.7404843028489995E9, 0.0, 2025-02-25 11:51:42.848
