%OpenBCI Raw EXG Data
%Number of channels = 4
%Sample Rate = 200 Hz
%Board = OpenBCI_GUI$BoardGanglionNative
Sample Index, EXG Channel 0, EXG Channel 1, EXG Channel 2, EXG Channel 3, Accel Channel 0, Accel Channel 1, Accel Channel 2, Other, Other, Other, Other, Other, Timestamp, Marker Channel, Timestamp (Formatted)
0.0, -99.27003447385505, -47.135829091537744, 12.321100404020399, -28.43632931308821, 0.0, 0.0, 0.0, 0.0, 0.0, 0.0, 0.0, 0.0, 1.741172189113274E9, 0.0, 2025-03-05 10:56:29.113
1.0, -157.23100398713723, -182.90915708290413, 14.359345879871398, -76.71843774104491, 0.0, -0.01600000075995922, 0.0, 0.0, 0.0, 0.0, 0.0, 0.0, 1.7411721891136353E9, 0.0, 2025-03-05 10:56:29.113
1.0, -78.1657790238969, -38.56771829305217, 13.51038858992979, 5.529442084487528, 0.0, -0.01600000075995922, 0.0, 0.0, 0.0, 0.0, 0.0, 0.0, 1.7411721891137464E9, 0.0, 2025-03-05 10:56:29.113
2.0, -19.88691801438108, 97.86383209051564, 8.427864550147206, 59.963685939554125, -0.01600000075995922, -0.01600000075995922, 0.0, 0.0, 0.0, 0.0, 0.0, 0.0, 1.7411721891411998E9, 0.0, 2025-03-05 10:56:29.141
2.0, -99.87589826667681, -41.98224695259705, 16.393851455766708, -21.06872640037909, -0.01600000075995922, -0.01600000075995922, 0.0, 0.0, 0.0, 0.0, 0.0, 0.0, 1.7411721891413734E9, 0.0, 2025-03-05 10:56:29.141
3.0, -165.15959189319983, -176.33815286075696, 14.991388972382993, -60.99215842736885, -0.01600000075995922, -0.01600000075995922, 0.0, 0.0, 0.0, 0.0, 0.0, 0.0, 1.741172189141856E9, 0.0, 2025-03-05 10:56:29.141
3.0, -79.63181980652735, -42.9658406409435, 12.945663696620613, 4.725363594014198, -0.01600000075995922, -0.01600000075995922, 0.0, 0.0, 0.0, 0.0, 0.0, 0.0, 1.7411721891419768E9, 0.0, 2025-03-05 10:56:29.141
4.0, -22.112158488016576, 105.698922497686, 9.658291635569185, 62.402100710663944, -0.01600000075995922, -0.01600000075995922, 0.0, 0.0, 0.0, 0.0, 0.0, 0.0, 1.7411721891427984E9, 0.0, 2025-03-05 10:56:29.142
4.0, -105.216475403402, -35.392543230671436, 13.10273949475959, -15.533674465958029, -0.01600000075995922, -0.01600000075995922, 0.0, 0.0, 0.0, 0.0, 0.0, 0.0, 1.7411721891428823E9, 0.0, 2025-03-05 10:56:29.142
5.0, -164.3966523022391, -171.52864151773974, 11.692797211464494, -70.47280481504276, -0.01600000075995922, -0.01600000075995922, 0.0, 0.0, 0.0, 0.0, 0.0, 0.0, 1.7411721891429975E9, 0.0, 2025-03-05 10:56:29.142
5.0, -80.38727959757671, -31.028079982381314, 12.897044997196645, 13.203716793563217, -0.01600000075995922, -0.01600000075995922, 0.0, 0.0, 0.0, 0.0, 0.0, 0.0, 1.7411721891430652E9, 0.0, 2025-03-05 10:56:29.143
6.0, -17.332566344644874, 103.4774219240062, 13.944216984789819, 61.51200452120975, -0.01600000075995922, -0.01600000075995922, 0.0, 0.0, 0.0, 0.0, 0.0, 0.0, 1.741172189171212E9, 0.0, 2025-03-05 10:56:29.171
6.0, -101.30454004975036, -42.08696415135637, 11.08319351868704, -6.883285868447274, -0.01600000075995922, -0.01600000075995922, 0.0, 0.0, 0.0, 0.0, 0.0, 0.0, 1.741172189171352E9, 0.0, 2025-03-05 10:56:29.171
7.0, -156.65505939396098, -168.44696395425126, 9.785448234062642, -62.66763360751793, -0.01600000075995922, -0.01600000075995922, 0.0, 0.0, 0.0, 0.0, 0.0, 0.0, 1.7411721891716404E9, 0.0, 2025-03-05 10:56:29.171
7.0, -82.18243157630786, -30.01830699434504, 10.858799521345645, 21.603532094042748, -0.01600000075995922, -0.01600000075995922, 0.0, 0.0, 0.0, 0.0, 0.0, 0.0, 1.741172189171724E9, 0.0, 2025-03-05 10:56:29.171
8.0, -21.611011893954128, 107.02658698195592, 10.021061931271106, 73.44976517977193, -0.01600000075995922, -0.01600000075995922, 0.0, 0.0, 0.0, 0.0, 0.0, 0.0, 1.7411721892016168E9, 0.0, 2025-03-05 10:56:29.201
8.0, -108.63474396290258, -27.789326620753855, 11.311327415984124, -2.043855325784534, -0.01600000075995922, -0.01600000075995922, 0.0, 0.0, 0.0, 0.0, 0.0, 0.0, 1.741172189201782E9, 0.0, 2025-03-05 10:56:29.201
9.0, -157.84808747982606, -166.44985737791285, 11.775075010489672, -54.8213235004805, -0.01600000075995922, -0.01600000075995922, 0.0, 0.0, 0.0, 0.0, 0.0, 0.0, 1.7411721892019365E9, 0.0, 2025-03-05 10:56:29.201
9.0, -83.62977285915986, -35.448641730006784, 11.113112718332559, 24.6964293573983, -0.01600000075995922, -0.01600000075995922, 0.0, 0.0, 0.0, 0.0, 0.0, 0.0, 1.7411721892020519E9, 0.0, 2025-03-05 10:56:29.202
10.0, -16.004901860374957, 106.74609448527917, 14.393004979472607, 73.59562127804384, -0.01600000075995922, -0.01600000075995922, 0.49600002355873585, 0.0, 0.0, 0.0, 0.0, 0.0, 1.7411721892022047E9, 0.0, 2025-03-05 10:56:29.202
10.0, -102.57236613472924, -31.345971478614956, 12.27996150450781, -8.61859944788739, -0.01600000075995922, -0.01600000075995922, 0.49600002355873585, 0.0, 0.0, 0.0, 0.0, 0.0, 1.7411721892022772E9, 0.0, 2025-03-05 10:56:29.202
11.0, -164.29193510347977, -168.46192355407402, 8.166071553248912, -54.82880330039188, -0.01600000075995922, 0.0, 0.49600002355873585, 0.0, 0.0, 0.0, 0.0, 0.0, 1.7411721892028131E9, 0.0, 2025-03-05 10:56:29.202
11.0, -86.76006912207231, -29.098291605245322, 9.572273936588317, 7.002962667029351, -0.01600000075995922, 0.0, 0.49600002355873585, 0.0, 0.0, 0.0, 0.0, 0.0, 1.7411721892029216E9, 0.0, 2025-03-05 10:56:29.202
12.0, -23.267787574324757, 107.41553657734767, 10.982216219883412, 69.37701412802562, -0.01600000075995922, 0.0, 0.49600002355873585, 0.0, 0.0, 0.0, 0.0, 0.0, 1.741172189231265E9, 0.0, 2025-03-05 10:56:29.231
12.0, -109.82403214881197, -36.84736431343481, 9.792928033974022, -9.504955737385899, -0.01600000075995922, 0.0, 0.49600002355873585, 0.0, 0.0, 0.0, 0.0, 0.0, 1.7411721892313945E9, 0.0, 2025-03-05 10:56:29.231
13.0, -164.99503629514948, -168.9481105483137, 13.742262387182564, -58.89407455222681, -0.01600000075995922, 0.0, 0.49600002355873585, 0.0, 0.0, 0.0, 0.0, 0.0, 1.741172189231849E9, 0.0, 2025-03-05 10:56:29.231
13.0, -86.26266242796555, -27.13484412850812, 13.86941898567602, 8.25956905214116, -0.01600000075995922, 0.0, 0.49600002355873585, 0.0, 0.0, 0.0, 0.0, 0.0, 1.741172189232025E9, 0.0, 2025-03-05 10:56:29.232
14.0, -20.74335510423407, 104.7003692095168, 13.656244688201696, 66.73664475930855, -0.01600000075995922, 0.0, 0.49600002355873585, 0.0, 0.0, 0.0, 0.0, 0.0, 1.7411721892612283E9, 0.0, 2025-03-05 10:56:29.261
14.0, -103.81401292001829, -36.43223541835323, 12.885825297329575, -12.021908407565206, -0.01600000075995922, 0.0, 0.49600002355873585, 0.0, 0.0, 0.0, 0.0, 0.0, 1.7411721892614021E9, 0.0, 2025-03-05 10:56:29.261
15.0, -156.67375889373943, -169.29592124419287, 7.578907260205597, -62.95186600415036, -0.01600000075995922, 0.0, 0.49600002355873585, 0.0, 0.0, 0.0, 0.0, 0.0, 1.741172189261701E9, 0.0, 2025-03-05 10:56:29.261
15.0, -81.92063857940957, -28.80283950874582, 9.699430535081774, 11.019615219440311, -0.01600000075995922, 0.0, 0.49600002355873585, 0.0, 0.0, 0.0, 0.0, 0.0, 1.741172189261783E9, 0.0, 2025-03-05 10:56:29.261
16.0, -20.526440906804055, 107.72220837371424, 14.6547979763709, 51.20110034337267, -0.01600000075995922, 0.0, 0.49600002355873585, 0.0, 0.0, 0.0, 0.0, 0.0, 1.7411721892622404E9, 0.0, 2025-03-05 10:56:29.262
16.0, -101.8056866438128, -30.03700649412349, 8.824293945450336, -7.118899565655738, -0.01600000075995922, 0.0, 0.49600002355873585, 0.0, 0.0, 0.0, 0.0, 0.0, 1.7411721892623675E9, 0.0, 2025-03-05 10:56:29.262
17.0, -160.37251994991675, -164.1722583048977, 12.519315101671964, -55.74133888958022, -0.01600000075995922, 0.0, 0.49600002355873585, 0.0, 0.0, 0.0, 0.0, 0.0, 1.7411721892629733E9, 0.0, 2025-03-05 10:56:29.262
17.0, -83.760669357609, -27.022647129837424, 12.631512100342661, 13.252335492987186, -0.01600000075995922, 0.0, 0.49600002355873585, 0.0, 0.0, 0.0, 0.0, 0.0, 1.7411721892630844E9, 0.0, 2025-03-05 10:56:29.263
18.0, -19.95797611353919, 115.16086938558146, 10.320253927726299, 65.81288947025314, -0.01600000075995922, 0.0, 0.49600002355873585, 0.0, 0.0, 0.0, 0.0, 0.0, 1.741172189291164E9, 0.0, 2025-03-05 10:56:29.291
18.0, -104.77516720863059, -33.65722965123132, 14.090073083061725, -8.330627151299268, -0.01600000075995922, 0.0, 0.49600002355873585, 0.0, 0.0, 0.0, 0.0, 0.0, 1.741172189291322E9, 0.0, 2025-03-05 10:56:29.291
19.0, -160.04714865377173, -168.4731432539411, 11.644178512040526, -57.551450468134135, -0.01600000075995922, 0.0, 0.49600002355873585, 0.0, 0.0, 0.0, 0.0, 0.0, 1.7411721892915978E9, 0.0, 2025-03-05 10:56:29.291
19.0, -83.19220456434414, -33.26080025592819, 7.530288560781628, 17.17175064655021, -0.01600000075995922, 0.0, 0.49600002355873585, 0.0, 0.0, 0.0, 0.0, 0.0, 1.7411721892917309E9, 0.0, 2025-03-05 10:56:29.291
20.0, -22.983555177692324, 106.50674088811502, 13.551527489442378, 73.32634848123416, -0.01600000075995922, 0.0, 0.7360000349581242, 0.0, 0.0, 0.0, 0.0, 0.0, 1.7411721893212397E9, 0.0, 2025-03-05 10:56:29.321
20.0, -101.05396675271913, -31.13279718114063, 11.47214311407879, -3.1695652124471962, -0.01600000075995922, 0.0, 0.7360000349581242, 0.0, 0.0, 0.0, 0.0, 0.0, 1.7411721893214085E9, 0.0, 2025-03-05 10:56:29.321
21.0, -166.12074618181214, -167.14173886971548, 11.790034610312432, -62.001931415405124, -0.01600000075995922, 0.0, 0.7360000349581242, 0.0, 0.0, 0.0, 0.0, 0.0, 1.7411721893216357E9, 0.0, 2025-03-05 10:56:29.321
21.0, -85.61939963558689, -25.12277795234695, 14.501462078187615, 15.219522869680077, -0.01600000075995922, 0.0, 0.7360000349581242, 0.0, 0.0, 0.0, 0.0, 0.0, 1.7411721893217468E9, 0.0, 2025-03-05 10:56:29.321
22.0, -25.61644474649802, 110.39997674198821, 7.148818765301257, 63.613828296307474, -0.01600000075995922, 0.0, 0.7360000349581242, 0.0, 0.0, 0.0, 0.0, 0.0, 1.7411721893222687E9, 0.0, 2025-03-05 10:56:29.322
22.0, -106.78723338479176, -28.604624811094254, 13.749742187093943, -16.124578658957034, -0.01600000075995922, 0.0, 0.7360000349581242, 0.0, 0.0, 0.0, 0.0, 0.0, 1.7411721893223708E9, 0.0, 2025-03-05 10:56:29.322
23.0, -172.86378580192104, -169.63251224020496, 10.578307024668902, -74.52311646705493, -0.01600000075995922, 0.0, 0.7360000349581242, 0.0, 0.0, 0.0, 0.0, 0.0, 1.7411721893230112E9, 0.0, 2025-03-05 10:56:29.323
23.0, -82.8743130681105, -31.016860282514244, 13.173797593917698, 13.656244688201696, -0.01600000075995922, 0.0, 0.7360000349581242, 0.0, 0.0, 0.0, 0.0, 0.0, 1.7411721893231387E9, 0.0, 2025-03-05 10:56:29.323
24.0, -26.674836433958262, 109.80533264903352, 12.26126200472936, 63.84944199351594, -0.01600000075995922, 0.0, 0.7360000349581242, 0.0, 0.0, 0.0, 0.0, 0.0, 1.741172189351251E9, 0.0, 2025-03-05 10:56:29.351
24.0, -110.23168124398217, -27.63225082261488, 13.289734492544085, -12.459476702380925, -0.01600000075995922, 0.0, 0.7360000349581242, 0.0, 0.0, 0.0, 0.0, 0.0, 1.7411721893514092E9, 0.0, 2025-03-05 10:56:29.351
25.0, -169.52031524153426, -166.15440528141335, 12.66143129998818, -68.24008454149589, -0.01600000075995922, 0.0, 0.7360000349581242, 0.0, 0.0, 0.0, 0.0, 0.0, 1.7411721893516085E9, 0.0, 2025-03-05 10:56:29.351
25.0, -87.85959970904514, -22.35525198513642, 12.351019603665918, 3.0274490141309798, -0.01600000075995922, 0.0, 0.7360000349581242, 0.0, 0.0, 0.0, 0.0, 0.0, 1.7411721893517103E9, 0.0, 2025-03-05 10:56:29.351
26.0, -26.633697534445673, 115.63583667995408, 12.926964196842164, 66.07094256719574, -0.01600000075995922, 0.0, 0.7360000349581242, 0.0, 0.0, 0.0, 0.0, 0.0, 1.7411721893814316E9, 0.0, 2025-03-05 10:56:29.381
26.0, -111.65658312710002, -35.65433622756973, 13.424370890948921, -18.218922634143382, -0.01600000075995922, 0.0, 0.7360000349581242, 0.0, 0.0, 0.0, 0.0, 0.0, 1.7411721893816164E9, 0.0, 2025-03-05 10:56:29.381
27.0, -166.5022159772925, -169.1762444456108, 10.499769125599414, -77.12234693625942, -0.01600000075995922, 0.0, 0.7360000349581242, 0.0, 0.0, 0.0, 0.0, 0.0, 1.7411721893817616E9, 0.0, 2025-03-05 10:56:29.381
27.0, -87.10040001804009, -23.735275068785995, 11.677837611641735, 5.061954590026289, -0.01600000075995922, 0.0, 0.7360000349581242, 0.0, 0.0, 0.0, 0.0, 0.0, 1.7411721893819785E9, 0.0, 2025-03-05 10:56:29.381
28.0, -29.906109995674342, 117.15797596191987, 14.31820698035881, 70.74207761185244, -0.01600000075995922, 0.0, 0.7360000349581242, 0.0, 0.0, 0.0, 0.0, 0.0, 1.741172189382223E9, 0.0, 2025-03-05 10:56:29.382
28.0, -112.13903022138402, -34.51740664104, 12.081746806856245, -8.712096946779639, -0.01600000075995922, 0.0, 0.7360000349581242, 0.0, 0.0, 0.0, 0.0, 0.0, 1.74117218938241E9, 0.0, 2025-03-05 10:56:29.382
29.0, -172.22800280945376, -164.66218519909307, 16.28913425700739, -64.21595218917355, -0.01600000075995922, 0.0, 0.7360000349581242, 0.0, 0.0, 0.0, 0.0, 0.0, 1.74117218938301E9, 0.0, 2025-03-05 10:56:29.383
29.0, -92.12682555848733, -30.01456709438935, 13.828280086163431, 9.504955737385899, -0.01600000075995922, 0.0, 0.7360000349581242, 0.0, 0.0, 0.0, 0.0, 0.0, 1.7411721893831627E9, 0.0, 2025-03-05 10:56:29.383
30.0, -31.009380482602865, 107.58009217539802, 10.29781452799216, 67.37616765173152, -0.01600000075995922, 0.0, 0.8800000417977571, 0.0, 0.0, 0.0, 0.0, 0.0, 1.741172189411615E9, 0.0, 2025-03-05 10:56:29.411
30.0, -116.64186976803467, -32.969088059384376, 16.023601360153407, -13.86193918576464, -0.01600000075995922, 0.0, 0.8800000417977571, 0.0, 0.0, 0.0, 0.0, 0.0, 1.741172189411722E9, 0.0, 2025-03-05 10:56:29.411
31.0, -166.20302398083732, -160.55577504774556, 10.705463623162359, -54.4884724044241, -0.01600000075995922, 0.0, 0.8800000417977571, 0.0, 0.0, 0.0, 0.0, 0.0, 1.741172189411863E9, 0.0, 2025-03-05 10:56:29.411
31.0, -93.77238153899089, -24.984401653986424, 11.187910717446357, 15.11480567092076, -0.01600000075995922, 0.0, 0.8800000417977571, 0.0, 0.0, 0.0, 0.0, 0.0, 1.7411721894119403E9, 0.0, 2025-03-05 10:56:29.411
32.0, -32.48664096510038, 115.84153117751703, 14.3219468803145, 67.48836465040222, 0.0, 0.0, 0.8800000417977571, 0.0, 0.0, 0.0, 0.0, 0.0, 1.7411721894412918E9, 0.0, 2025-03-05 10:56:29.441
32.0, -121.69821450812742, -36.15548282163218, 11.584340112749487, -12.403378203045577, 0.0, 0.0, 0.8800000417977571, 0.0, 0.0, 0.0, 0.0, 0.0, 1.741172189441517E9, 0.0, 2025-03-05 10:56:29.441
33.0, -171.23318942124024, -164.70706399856135, 12.994282396044582, -53.486179216299206, 0.0, 0.0, 0.8800000417977571, 0.0, 0.0, 0.0, 0.0, 0.0, 1.7411721894416835E9, 0.0, 2025-03-05 10:56:29.441
33.0, -89.32564049167559, -22.74794148048386, 15.46261636679992, 11.105632918421179, 0.0, 0.0, 0.8800000417977571, 0.0, 0.0, 0.0, 0.0, 0.0, 1.7411721894418142E9, 0.0, 2025-03-05 10:56:29.441
34.0, -33.88910344848409, 111.94829532364383, 10.174397829454392, 59.615875243674964, 0.0, 0.0, 0.8800000417977571, 0.0, 0.0, 0.0, 0.0, 0.0, 1.74117218944226E9, 0.0, 2025-03-05 10:56:29.442
34.0, -120.557545021642, -31.22629468003288, 10.383832226973027, -20.578799506183714, 0.0, 0.0, 0.8800000417977571, 0.0, 0.0, 0.0, 0.0, 0.0, 1.741172189442347E9, 0.0, 2025-03-05 10:56:29.442
35.0, -178.48111553536728, -172.22052300954238, 10.746602522674948, -71.39282020414248, 0.0, 0.0, 0.8800000417977571, 0.0, 0.0, 0.0, 0.0, 0.0, 1.7411721894428625E9, 0.0, 2025-03-05 10:56:29.442
35.0, -89.90532498480752, -30.590511687565595, 10.967256620060652, 8.308187751565129, 0.0, 0.0, 0.8800000417977571, 0.0, 0.0, 0.0, 0.0, 0.0, 1.7411721894429832E9, 0.0, 2025-03-05 10:56:29.442
36.0, -22.908757178578526, 110.17558274464682, 8.476483249571174, 62.09542891429737, 0.0, 0.0, 0.8800000417977571, 0.0, 0.0, 0.0, 0.0, 0.0, 1.741172189471223E9, 0.0, 2025-03-05 10:56:29.471
36.0, -119.484193734359, -31.899476672057062, 11.991989207919687, -13.622585588600487, 0.0, 0.0, 0.8800000417977571, 0.0, 0.0, 0.0, 0.0, 0.0, 1.7411721894713922E9, 0.0, 2025-03-05 10:56:29.471
37.0, -171.41270461911336, -163.56639451207593, 12.799807598348707, -57.529011068399996, 0.0, 0.0, 0.8800000417977571, 0.0, 0.0, 0.0, 0.0, 0.0, 1.7411721894715774E9, 0.0, 2025-03-05 10:56:29.471
37.0, -87.00316261919215, -24.853505155537277, 15.653351264540106, 13.196236993651837, 0.0, 0.0, 0.8800000417977571, 0.0, 0.0, 0.0, 0.0, 0.0, 1.7411721894717083E9, 0.0, 2025-03-05 10:56:29.471
38.0, -29.16560980444774, 118.09669085079804, 10.380092327017337, 69.27977672917768, 0.0, 0.0, 0.8800000417977571, 0.0, 0.0, 0.0, 0.0, 0.0, 1.7411721895012865E9, 0.0, 2025-03-05 10:56:29.501
38.0, -111.12177743343636, -37.54672560514882, 14.393004979472607, -10.866279321257025, 0.0, 0.0, 0.8800000417977571, 0.0, 0.0, 0.0, 0.0, 0.0, 1.7411721895014975E9, 0.0, 2025-03-05 10:56:29.501
39.0, -167.89719866076484, -166.14692548150197, 10.66432472364977, -72.78032308770344, 0.0, 0.0, 0.8800000417977571, 0.0, 0.0, 0.0, 0.0, 0.0, 1.7411721895016448E9, 0.0, 2025-03-05 10:56:29.501
39.0, -92.84862624993548, -28.219415115658194, 16.109619059134275, 8.816814145538956, 0.0, 0.0, 0.8800000417977571, 0.0, 0.0, 0.0, 0.0, 0.0, 1.741172189501768E9, 0.0, 2025-03-05 10:56:29.501
40.0, -33.69836855074391, 102.01138114137575, 14.161131182219833, 60.360115334857255, 0.0, 0.0, 0.9280000440776348, 0.0, 0.0, 0.0, 0.0, 0.0, 1.7411721895023818E9, 0.0, 2025-03-05 10:56:29.502
40.0, -113.1488032094203, -32.40062326611951, 11.778814910445362, -14.523901477921754, 0.0, 0.0, 0.9280000440776348, 0.0, 0.0, 0.0, 0.0, 0.0, 1.741172189502516E9, 0.0, 2025-03-05 10:56:29.502
41.0, -174.81601357879117, -166.85376657312736, 9.392758738715202, -71.0150903086178, 0.0, 0.0, 0.9280000440776348, 0.0, 0.0, 0.0, 0.0, 0.0, 1.7411721895316994E9, 0.0, 2025-03-05 10:56:29.531
41.0, -87.41829151427373, -29.453582101035863, 12.769888398703188, 8.091273554135114, 0.0, 0.0, 0.9280000440776348, 0.0, 0.0, 0.0, 0.0, 0.0, 1.7411721895319662E9, 0.0, 2025-03-05 10:56:29.531
42.0, -28.552266211714596, 112.93562891194597, 10.436190826352686, 70.11751431925222, 0.0, 0.0, 0.9280000440776348, 0.0, 0.0, 0.0, 0.0, 0.0, 1.741172189532057E9, 0.0, 2025-03-05 10:56:29.532
42.0, -117.15423606196418, -37.58786450466141, 13.86941898567602, -17.583139641676098, 0.0, 0.0, 0.9280000440776348, 0.0, 0.0, 0.0, 0.0, 0.0, 1.741172189532128E9, 0.0, 2025-03-05 10:56:29.532
43.0, -168.05053455894813, -169.03786814725026, 12.26874180464074, -69.72856472386047, 0.0, 0.0, 0.9280000440776348, 0.0, 0.0, 0.0, 0.0, 0.0, 1.741172189532347E9, 0.0, 2025-03-05 10:56:29.532
43.0, -84.96491714334115, -32.213628268335015, 12.941923796664923, 8.719576746691018, 0.0, 0.0, 0.9280000440776348, 0.0, 0.0, 0.0, 0.0, 0.0, 1.74117218953243E9, 0.0, 2025-03-05 10:56:29.532
44.0, -22.29915348580107, 111.76878012577072, 11.550681013148278, 57.098922573495656, 0.0, 0.0, 0.9280000440776348, 0.0, 0.0, 0.0, 0.0, 0.0, 1.7411721895330148E9, 0.0, 2025-03-05 10:56:29.533
44.0, -108.07749886950478, -36.234020720701665, 11.146771817933768, -13.790881086606532, 0.0, 0.0, 0.9280000440776348, 0.0, 0.0, 0.0, 0.0, 0.0, 1.74117218953321E9, 0.0, 2025-03-05 10:56:29.533
45.0, -172.4673564066179, -170.47772963019088, 9.101046542171389, -61.88973441673443, 0.0, 0.0, 0.9280000440776348, 0.0, 0.0, 0.0, 0.0, 0.0, 1.7411721895614147E9, 0.0, 2025-03-05 10:56:29.561
45.0, -87.82220070948824, -26.091412040870637, 8.607379748020321, 12.085486706811935, 0.0, 0.0, 0.9280000440776348, 0.0, 0.0, 0.0, 0.0, 0.0, 1.7411721895616164E9, 0.0, 2025-03-05 10:56:29.561
46.0, -33.417876054067165, 102.05252004088834, 12.463216602336615, 63.92797989258543, 0.0, 0.0, 0.9280000440776348, 0.0, 0.0, 0.0, 0.0, 0.0, 1.7411721895617821E9, 0.0, 2025-03-05 10:56:29.561
46.0, -110.08208524575457, -35.53465942898765, 16.932397049386054, -19.277314321603626, 0.0, 0.0, 0.9280000440776348, 0.0, 0.0, 0.0, 0.0, 0.0, 1.7411721895619273E9, 0.0, 2025-03-05 10:56:29.561
47.0, -166.30026137968525, -168.24126945668831, 14.733335875440389, -63.580169196706265, 0.0, 0.0, 0.9280000440776348, 0.0, 0.0, 0.0, 0.0, 0.0, 1.7411721895912523E9, 0.0, 2025-03-05 10:56:29.591
47.0, -94.434343831148, -26.951589030679315, 13.315913792233914, 5.955790679436177, 0.0, 0.0, 0.9280000440776348, 0.0, 0.0, 0.0, 0.0, 0.0, 1.741172189591464E9, 0.0, 2025-03-05 10:56:29.591
48.0, -28.38771061366424, 107.5501729757525, 12.67639089981094, 60.378814834635705, 0.0, 0.0, 0.9280000440776348, 0.0, 0.0, 0.0, 0.0, 0.0, 1.7411721895915973E9, 0.0, 2025-03-05 10:56:29.591
48.0, -109.47248155297711, -34.29675254365429, 10.170657929498702, -17.97956903697923, 0.0, 0.0, 0.9280000440776348, 0.0, 0.0, 0.0, 0.0, 0.0, 1.74117218959173E9, 0.0, 2025-03-05 10:56:29.591
49.0, -168.5442013530992, -167.7251632628031, 11.030834919307381, -74.64279326563701, 0.0, 0.0, 0.9280000440776348, 0.0, 0.0, 0.0, 0.0, 0.0, 1.741172189592255E9, 0.0, 2025-03-05 10:56:29.592
49.0, -84.74426304595545, -30.39229698991403, 12.575413601007313, 3.981123502831906, 0.0, 0.0, 0.9280000440776348, 0.0, 0.0, 0.0, 0.0, 0.0, 1.7411721895923393E9, 0.0, 2025-03-05 10:56:29.592
50.0, -21.86532509094104, 107.42675627721474, 13.974136184435338, 53.934967210981995, 0.0, 0.0, 0.9760000463575125, 0.0, 0.0, 0.0, 0.0, 0.0, 1.7411721895928824E9, 0.0, 2025-03-05 10:56:29.592
50.0, -107.06398598151281, -39.78318577865139, 10.013582131359726, -13.940477084834129, 0.0, 0.0, 0.9760000463575125, 0.0, 0.0, 0.0, 0.0, 0.0, 1.741172189592962E9, 0.0, 2025-03-05 10:56:29.592
51.0, -168.18517095735297, -171.41644451906905, 12.912004597019404, -66.92363975709304, 0.0, 0.0, 0.9760000463575125, 0.0, 0.0, 0.0, 0.0, 0.0, 1.7411721896210861E9, 0.0, 2025-03-05 10:56:29.621
51.0, -92.29512105649337, -28.182016116101295, 9.291781439911574, 15.036267771851271, 0.0, 0.0, 0.9760000463575125, 0.0, 0.0, 0.0, 0.0, 0.0, 1.7411721896211896E9, 0.0, 2025-03-05 10:56:29.621
52.0, -24.81610615598038, 116.28657927224413, 13.125178894493729, 65.86150816967711, 0.0, 0.0, 0.9760000463575125, 0.0, 0.0, 0.0, 0.0, 0.0, 1.7411721896215675E9, 0.0, 2025-03-05 10:56:29.621
52.0, -110.83754503680393, -38.70609459141269, 12.728749499190599, -16.614505553152412, 0.0, 0.0, 0.9760000463575125, 0.0, 0.0, 0.0, 0.0, 0.0, 1.7411721896216424E9, 0.0, 2025-03-05 10:56:29.621
53.0, -168.79103475017473, -170.78814132651314, 12.882085397373885, -58.13113496126607, 0.0, 0.0, 0.9760000463575125, 0.0, 0.0, 0.0, 0.0, 0.0, 1.741172189651239E9, 0.0, 2025-03-05 10:56:29.651
53.0, -85.25662933988497, -34.34163134312257, 15.07366677140817, 7.83322045719251, 0.0, 0.0, 0.9760000463575125, 0.0, 0.0, 0.0, 0.0, 0.0, 1.7411721896513855E9, 0.0, 2025-03-05 10:56:29.651
54.0, -20.33196610910818, 104.0309271174483, 12.478176202159375, 65.33044237596914, 0.0, 0.0, 0.9760000463575125, 0.0, 0.0, 0.0, 0.0, 0.0, 1.7411721896515112E9, 0.0, 2025-03-05 10:56:29.651
54.0, -97.80025379126891, -38.14510959805921, 11.696537111420184, -15.256921869236976, 0.0, 0.0, 0.9760000463575125, 0.0, 0.0, 0.0, 0.0, 0.0, 1.7411721896517713E9, 0.0, 2025-03-05 10:56:29.651
55.0, -161.85352033236995, -175.9903421648778, 11.793774510268122, -72.39137349231169, 0.0, 0.0, 0.9760000463575125, 0.0, 0.0, 0.0, 0.0, 0.0, 1.7411721896521869E9, 0.0, 2025-03-05 10:56:29.652
55.0, -77.94138502655551, -30.687749086413532, 14.535121177788824, 10.29781452799216, 0.0, 0.0, 0.9760000463575125, 0.0, 0.0, 0.0, 0.0, 0.0, 1.741172189652264E9, 0.0, 2025-03-05 10:56:29.652
56.0, -27.258260827045888, 102.39285093685612, 12.463216602336615, 60.95849932776764, 0.0, 0.0, 0.9760000463575125, 0.0, 0.0, 0.0, 0.0, 0.0, 1.741172189652876E9, 0.0, 2025-03-05 10:56:29.652
56.0, -114.1847554971464, -32.90176986018196, 13.966656384523958, -18.944463225547224, 0.0, 0.0, 0.9760000463575125, 0.0, 0.0, 0.0, 0.0, 0.0, 1.7411721896529455E9, 0.0, 2025-03-05 10:56:29.652
57.0, -167.86727946111932, -169.10518634645268, 8.66721814731136, -74.25010377028957, 0.0, 0.0, 0.9760000463575125, 0.0, 0.0, 0.0, 0.0, 0.0, 1.741172189681478E9, 0.0, 2025-03-05 10:56:29.681
57.0, -88.33082710346207, -29.468541700858623, 12.070527106989175, -0.03178914962336421, 0.0, 0.0, 0.9760000463575125, 0.0, 0.0, 0.0, 0.0, 0.0, 1.7411721896816256E9, 0.0, 2025-03-05 10:56:29.681
58.0, -23.55949977086857, 110.43363584158942, 13.585186589043587, 67.94837234495208, 0.0, 0.0, 0.9760000463575125, 0.0, 0.0, 0.0, 0.0, 0.0, 1.7411721896818068E9, 0.0, 2025-03-05 10:56:29.681
58.0, -105.28379360260442, -34.42764904210344, 12.766148498747498, -17.44850324327126, 0.0, 0.0, 0.9760000463575125, 0.0, 0.0, 0.0, 0.0, 0.0, 1.741172189681918E9, 0.0, 2025-03-05 10:56:29.681
59.0, -174.41210438357666, -162.55662152403966, 10.323993827681988, -67.38738735159859, 0.0, 0.0, 0.9760000463575125, 0.0, 0.0, 0.0, 0.0, 0.0, 1.741172189711099E9, 0.0, 2025-03-05 10:56:29.711
59.0, -90.73932267492637, -24.617891458328813, 11.85735280951485, -1.5988072310574353, 0.0, 0.0, 0.9760000463575125, 0.0, 0.0, 0.0, 0.0, 0.0, 1.741172189711272E9, 0.0, 2025-03-05 10:56:29.711
60.0, -23.350065373349935, 112.09415142191574, 11.386125415097922, 65.69321267167106, 0.0, 0.0, 0.9760000463575125, 0.0, 0.0, 0.0, 0.0, 0.0, 1.741172189711638E9, 0.0, 2025-03-05 10:56:29.711
60.0, -116.85504406550899, -40.48628697032109, 14.755775275174528, -19.426910319831222, 0.0, 0.0, 0.9760000463575125, 0.0, 0.0, 0.0, 0.0, 0.0, 1.7411721897117147E9, 0.0, 2025-03-05 10:56:29.711
61.0, -169.70357033936307, -174.16527098650113, 10.888718720991164, -81.21379748778418, 0.0, 0.0, 0.9760000463575125, 0.0, 0.0, 0.0, 0.0, 0.0, 1.7411721897412517E9, 0.0, 2025-03-05 10:56:29.741
61.0, -88.64871859969571, -40.30677177244797, 10.65684492373839, 4.927318191621453, 0.0, 0.0, 0.9760000463575125, 0.0, 0.0, 0.0, 0.0, 0.0, 1.7411721897413428E9, 0.0, 2025-03-05 10:56:29.741
62.0, -33.859184248838574, 99.13165817549452, 14.250888781156391, 63.209919101092964, -0.01600000075995922, 0.0, 0.9760000463575125, 0.0, 0.0, 0.0, 0.0, 0.0, 1.741172189741438E9, 0.0, 2025-03-05 10:56:29.741
62.0, -116.27161967242137, -48.1156828799285, 11.726456311065704, -20.608718705829233, -0.01600000075995922, 0.0, 0.9760000463575125, 0.0, 0.0, 0.0, 0.0, 0.0, 1.7411721897416124E9, 0.0, 2025-03-05 10:56:29.741
63.0, -170.1710578338243, -183.1036318806, 7.8668795567937195, -75.2037782589905, -0.01600000075995922, 0.0, 0.9760000463575125, 0.0, 0.0, 0.0, 0.0, 0.0, 1.7411721897423148E9, 0.0, 2025-03-05 10:56:29.742
63.0, -88.80579439783469, -40.91637546522543, 14.27332818089053, 4.557068096008152, -0.01600000075995922, 0.0, 0.9760000463575125, 0.0, 0.0, 0.0, 0.0, 0.0, 1.7411721897424989E9, 0.0, 2025-03-05 10:56:29.742
64.0, -24.808626356069, 96.9138975017704, 11.240269316826016, 58.43406685767695, -0.01600000075995922, 0.0, 0.9760000463575125, 0.0, 0.0, 0.0, 0.0, 0.0, 1.7411721897429726E9, 0.0, 2025-03-05 10:56:29.742
64.0, -110.85624453658238, -39.184801785741, 14.67723737610504, -17.010934948455542, -0.01600000075995922, 0.0, 0.9760000463575125, 0.0, 0.0, 0.0, 0.0, 0.0, 1.7411721897431004E9, 0.0, 2025-03-05 10:56:29.743
65.0, -170.0962598347105, -169.5427546412684, 10.735382822807878, -74.74377056444064, -0.01600000075995922, 0.0, 0.9760000463575125, 0.0, 0.0, 0.0, 0.0, 0.0, 1.7411721897436216E9, 0.0, 2025-03-05 10:56:29.743
65.0, -85.47728343727067, -29.318945702631027, 10.6905040233396, 2.0662947255186737, -0.01600000075995922, 0.0, 0.9760000463575125, 0.0, 0.0, 0.0, 0.0, 0.0, 1.7411721897437997E9, 0.0, 2025-03-05 10:56:29.743
66.0, -17.691596740391105, 107.2921198788099, 13.693643687758595, 62.71999220689759, -0.01600000075995922, 0.0, 0.9760000463575125, 0.0, 0.0, 0.0, 0.0, 0.0, 1.7411721897712562E9, 0.0, 2025-03-05 10:56:29.771
66.0, -107.96904177078977, -44.334644024726, 12.994282396044582, -24.445856060367078, -0.01600000075995922, 0.0, 0.9760000463575125, 0.0, 0.0, 0.0, 0.0, 0.0, 1.7411721897713523E9, 0.0, 2025-03-05 10:56:29.771
67.0, -154.26900322223082, -174.4756826828234, 10.963516720104963, -65.57353587308899, -0.01600000075995922, 0.0, 0.9760000463575125, 0.0, 0.0, 0.0, 0.0, 0.0, 1.741172189771551E9, 0.0, 2025-03-05 10:56:29.771
67.0, -78.66318571800366, -32.49786066496745, 12.26874180464074, -1.2173374355770648, -0.01600000075995922, 0.0, 0.9760000463575125, 0.0, 0.0, 0.0, 0.0, 0.0, 1.741172189771631E9, 0.0, 2025-03-05 10:56:29.771
68.0, -21.96256248978898, 100.04045386472717, 7.287195063661784, 49.484486263711005, -0.01600000075995922, 0.0, 0.9760000463575125, 0.0, 0.0, 0.0, 0.0, 0.0, 1.741172189801226E9, 0.0, 2025-03-05 10:56:29.801
68.0, -112.93936881190166, -40.84531736606732, 12.889565197285265, -30.605471287388355, -0.01600000075995922, 0.0, 0.9760000463575125, 0.0, 0.0, 0.0, 0.0, 0.0, 1.7411721898014889E9, 0.0, 2025-03-05 10:56:29.801
69.0, -160.42113864934072, -168.40582505473867, 10.937337420415133, -76.51274324348196, -0.01600000075995922, 0.0, 0.9760000463575125, 0.0, 0.0, 0.0, 0.0, 0.0, 1.741172189801617E9, 0.0, 2025-03-05 10:56:29.801
69.0, -79.88987290346995, -32.31834546709433, 14.26584838097915, 0.9779838384129107, -0.01600000075995922, 0.0, 0.9760000463575125, 0.0, 0.0, 0.0, 0.0, 0.0, 1.741172189801734E9, 0.0, 2025-03-05 10:56:29.801
70.0, -17.642978040967137, 105.78494019666687, 8.611119647976011, 44.697414320427924, -0.01600000075995922, 0.0, 0.9760000463575125, 0.0, 0.0, 0.0, 0.0, 0.0, 1.7411721898025672E9, 0.0, 2025-03-05 10:56:29.802
70.0, -102.19463623920456, -43.99431312875822, 6.24750287597999, -30.85604458441958, -0.01600000075995922, 0.0, 0.9760000463575125, 0.0, 0.0, 0.0, 0.0, 0.0, 1.7411721898027203E9, 0.0, 2025-03-05 10:56:29.802
71.0, -164.9838165952824, -170.8404999258928, 11.662878011818975, -83.7644092575647, -0.01600000075995922, 0.0, 0.9760000463575125, 0.0, 0.0, 0.0, 0.0, 0.0, 1.7411721898029835E9, 0.0, 2025-03-05 10:56:29.802
71.0, -84.77418224560097, -28.286733314860612, 11.251489016693085, -3.9736437029205263, -0.01600000075995922, 0.0, 0.9760000463575125, 0.0, 0.0, 0.0, 0.0, 0.0, 1.7411721898030968E9, 0.0, 2025-03-05 10:56:29.803
72.0, -20.919130402151495, 108.00644077034667, 10.26041552843526, 56.43696028133854, 0.0, 0.0, 0.9760000463575125, 0.0, 0.0, 0.0, 0.0, 0.0, 1.741172189831239E9, 0.0, 2025-03-05 10:56:29.831
72.0, -111.97073472337797, -38.234867196995765, 16.061000359710306, -23.469742171932012, 0.0, 0.0, 0.9760000463575125, 0.0, 0.0, 0.0, 0.0, 0.0, 1.74117218983136E9, 0.0, 2025-03-05 10:56:29.831
73.0, -168.0206153593026, -162.9156519197859, 11.393605215009302, -57.71974596614018, 0.0, 0.0, 0.9760000463575125, 0.0, 0.0, 0.0, 0.0, 0.0, 1.7411721898315327E9, 0.0, 2025-03-05 10:56:29.831
73.0, -81.54290868388489, -11.135552118066698, 13.031681395601481, 11.03831471921876, 0.0, 0.0, 0.9760000463575125, 0.0, 0.0, 0.0, 0.0, 0.0, 1.7411721898316033E9, 0.0, 2025-03-05 10:56:29.831
74.0, -19.06040012417361, 125.20624066656455, 11.584340112749487, 67.8660945459269, 0.0, 0.0, 0.9760000463575125, 0.0, 0.0, 0.0, 0.0, 0.0, 1.7411721898613894E9, 0.0, 2025-03-05 10:56:29.861
74.0, -112.89075011247769, -22.79282027995214, 12.354759503621608, -14.965209672693163, 0.0, 0.0, 0.9760000463575125, 0.0, 0.0, 0.0, 0.0, 0.0, 1.7411721898617268E9, 0.0, 2025-03-05 10:56:29.861
75.0, -165.89261228451505, -154.8711271150969, 12.829726797994226, -61.65786061948165, 0.0, 0.0, 0.9760000463575125, 0.0, 0.0, 0.0, 0.0, 0.0, 1.7411721898618224E9, 0.0, 2025-03-05 10:56:29.861
75.0, -87.08170051826164, -16.113358959089965, 11.670357811730355, 2.657198918517679, 0.0, 0.0, 0.9760000463575125, 0.0, 0.0, 0.0, 0.0, 0.0, 1.7411721898619227E9, 0.0, 2025-03-05 10:56:29.861
76.0, -25.52668714756146, 117.78253925452009, 13.86567908572033, 65.79418997047469, 0.0, 0.0, 0.9760000463575125, 0.0, 0.0, 0.0, 0.0, 0.0, 1.7411721898622315E9, 0.0, 2025-03-05 10:56:29.862
76.0, -110.35509794251993, -32.45672176545486, 11.584340112749487, -18.27128123352304, 0.0, 0.0, 0.9760000463575125, 0.0, 0.0, 0.0, 0.0, 0.0, 1.7411721898624043E9, 0.0, 2025-03-05 10:56:29.862
77.0, -170.50016902992502, -163.37939951429144, 13.05786069529131, -77.21210453519598, 0.0, 0.0, 0.9760000463575125, 0.0, 0.0, 0.0, 0.0, 0.0, 1.7411721898628266E9, 0.0, 2025-03-05 10:56:29.862
77.0, -88.42058470239863, -24.913343554828316, 11.06823391886428, 5.084393989760429, 0.0, 0.0, 0.9760000463575125, 0.0, 0.0, 0.0, 0.0, 0.0, 1.741172189862953E9, 0.0, 2025-03-05 10:56:29.862
78.0, -25.077899152878672, 109.73427454987541, 9.781708334106952, 53.75919191306457, 0.0, 0.0, 0.9760000463575125, 0.0, 0.0, 0.0, 0.0, 0.0, 1.7411721898912847E9, 0.0, 2025-03-05 10:56:29.891
78.0, -119.51037303404883, -30.74758748570457, 9.635852235835046, -21.88776449067518, 0.0, 0.0, 0.9760000463575125, 0.0, 0.0, 0.0, 0.0, 0.0, 1.741172189891378E9, 0.0, 2025-03-05 10:56:29.891
79.0, -167.84857996134087, -170.63106552837417, 10.193097329232842, -78.68188521778211, 0.0, 0.0, 0.9760000463575125, 0.0, 0.0, 0.0, 0.0, 0.0, 1.7411721898916514E9, 0.0, 2025-03-05 10:56:29.891
79.0, -92.86358584975824, -33.784386249724776, 14.572520177345723, -1.5576683315448463, 0.0, 0.0, 0.9760000463575125, 0.0, 0.0, 0.0, 0.0, 0.0, 1.7411721898917296E9, 0.0, 2025-03-05 10:56:29.891
80.0, -25.53416694747284, 106.81715258443728, 13.04664099542424, 66.37761436356232, 0.0, 0.0, 0.9920000471174717, 0.0, 0.0, 0.0, 0.0, 0.0, 1.7411721899217088E9, 0.0, 2025-03-05 10:56:29.921
80.0, -114.32313179550692, -36.245240420568734, 12.493135801982135, -16.74540205160156, 0.0, 0.0, 0.9920000471174717, 0.0, 0.0, 0.0, 0.0, 0.0, 1.7411721899218647E9, 0.0, 2025-03-05 10:56:29.921
81.0, -162.86329332040623, -164.34803360281512, 11.711496711242944, -64.41416688682511, 0.0, 0.0, 0.9920000471174717, 0.0, 0.0, 0.0, 0.0, 0.0, 1.7411721899219816E9, 0.0, 2025-03-05 10:56:29.921
81.0, -82.00665627839044, -24.69268945744261, 10.24171602865681, 5.43220468563959, 0.0, 0.0, 0.9920000471174717, 0.0, 0.0, 0.0, 0.0, 0.0, 1.7411721899221163E9, 0.0, 2025-03-05 10:56:29.922
82.0, -27.333058826159686, 112.7037551146932, 11.46092341421172, 48.97585986973718, -0.01600000075995922, 0.0, 0.9920000471174717, 0.0, 0.0, 0.0, 0.0, 0.0, 1.7411721899222152E9, 0.0, 2025-03-05 10:56:29.922
82.0, -107.92790287127718, -32.583878363948315, 14.740815675351769, -18.099245835561305, -0.01600000075995922, 0.0, 0.9920000471174717, 0.0, 0.0, 0.0, 0.0, 0.0, 1.7411721899222875E9, 0.0, 2025-03-05 10:56:29.922
83.0, -158.3567138737999, -165.04739489452913, 9.42641783831641, -53.942447010893375, -0.01600000075995922, 0.0, 0.9920000471174717, 0.0, 0.0, 0.0, 0.0, 0.0, 1.7411721899229488E9, 0.0, 2025-03-05 10:56:29.922
83.0, -85.27532883966342, -19.423170419875532, 9.295521339867264, 19.5091881188564, -0.01600000075995922, 0.0, 0.9920000471174717, 0.0, 0.0, 0.0, 0.0, 0.0, 1.7411721899230905E9, 0.0, 2025-03-05 10:56:29.923
84.0, -26.79451323254034, 118.62027684459463, 9.777968434151262, 64.74327808292583, -0.01600000075995922, 0.0, 0.9920000471174717, 0.0, 0.0, 0.0, 0.0, 0.0, 1.7411721899511995E9, 0.0, 2025-03-05 10:56:29.951
84.0, -103.45124262431636, -23.87739126710221, 12.998022296000272, -6.614013071637601, -0.01600000075995922, 0.0, 0.9920000471174717, 0.0, 0.0, 0.0, 0.0, 0.0, 1.7411721899513547E9, 0.0, 2025-03-05 10:56:29.951
85.0, -166.51343567715958, -163.33826061477885, 13.809580586384982, -59.84400914097205, -0.01600000075995922, 0.0, 0.9920000471174717, 0.0, 0.0, 0.0, 0.0, 0.0, 1.741172189951544E9, 0.0, 2025-03-05 10:56:29.951
85.0, -85.61191983567551, -13.263555192854255, 14.426664079073817, 14.108772582840174, -0.01600000075995922, 0.0, 0.9920000471174717, 0.0, 0.0, 0.0, 0.0, 0.0, 1.7411721899517047E9, 0.0, 2025-03-05 10:56:29.951
86.0, -27.280700226780027, 122.62196979718283, 15.52619466604665, 61.590542420279235, -0.01600000075995922, 0.0, 0.9920000471174717, 0.0, 0.0, 0.0, 0.0, 0.0, 1.7411721899811175E9, 0.0, 2025-03-05 10:56:29.981
86.0, -110.71786823822185, -26.491581336129457, 12.590373200830072, -12.27248170459643, -0.01600000075995922, 0.0, 0.9920000471174717, 0.0, 0.0, 0.0, 0.0, 0.0, 1.7411721899813068E9, 0.0, 2025-03-05 10:56:29.981
87.0, -167.81492086173967, -157.7994687804021, 11.44222391443327, -51.67980753770098, -0.01600000075995922, 0.0, 0.9920000471174717, 0.0, 0.0, 0.0, 0.0, 0.0, 1.741172189981588E9, 0.0, 2025-03-05 10:56:29.981
87.0, -79.21669091144577, -5.155452088918537, 15.245702169369906, 22.531027283053845, -0.01600000075995922, 0.0, 0.9920000471174717, 0.0, 0.0, 0.0, 0.0, 0.0, 1.7411721899817376E9, 0.0, 2025-03-05 10:56:29.981
88.0, -26.263447438832372, 128.94614062225446, 13.199976893607527, 73.93221227405593, -0.01600000075995922, 0.0, 0.9920000471174717, 0.0, 0.0, 0.0, 0.0, 0.0, 1.7411721899823568E9, 0.0, 2025-03-05 10:56:29.982
88.0, -111.85853772470728, -18.66023082891479, 14.393004979472607, -4.504709496628493, -0.01600000075995922, 0.0, 0.9920000471174717, 0.0, 0.0, 0.0, 0.0, 0.0, 1.741172189982505E9, 0.0, 2025-03-05 10:56:29.982
89.0, -168.99672924773768, -157.4965368839912, 14.3219468803145, -61.31378982355818, -0.01600000075995922, 0.0, 0.9920000471174717, 0.0, 0.0, 0.0, 0.0, 0.0, 1.741172189983034E9, 0.0, 2025-03-05 10:56:29.983
89.0, -89.64727188786492, -14.149911482352763, 8.061354354489595, 12.30240090424195, -0.01600000075995922, 0.0, 0.9920000471174717, 0.0, 0.0, 0.0, 0.0, 0.0, 1.7411721899832609E9, 0.0, 2025-03-05 10:56:29.983
90.0, -34.12097724573687, 114.23711409652606, 6.509295872878283, 60.767764430027455, -0.01600000075995922, 0.0, 0.9920000471174717, 0.0, 0.0, 0.0, 0.0, 0.0, 1.7411721900112164E9, 0.0, 2025-03-05 10:56:30.011
90.0, -110.13818374508992, -21.764347792137414, 14.606179276946932, -15.739368963520974, -0.01600000075995922, 0.0, 0.9920000471174717, 0.0, 0.0, 0.0, 0.0, 0.0, 1.7411721900113728E9, 0.0, 2025-03-05 10:56:30.011
91.0, -174.90951107768342, -152.35791434487328, 11.704016911331564, -68.89082713378593, -0.01600000075995922, 0.0, 0.9920000471174717, 0.0, 0.0, 0.0, 0.0, 0.0, 1.7411721900115852E9, 0.0, 2025-03-05 10:56:30.011
91.0, -92.04080785950646, -17.51582144247368, 10.204317029099911, 3.7268103058449924, -0.01600000075995922, 0.0, 0.9920000471174717, 0.0, 0.0, 0.0, 0.0, 0.0, 1.7411721900116684E9, 0.0, 2025-03-05 10:56:30.011
92.0, -32.13509036926553, 114.05385899869725, 10.570827224757522, 50.49051935179159, 0.0, 0.0, 0.9920000471174717, 0.0, 0.0, 0.0, 0.0, 0.0, 1.7411721900410583E9, 0.0, 2025-03-05 10:56:30.041
92.0, -116.2977989721112, -39.805625178385526, 14.617398976814002, -24.27756056236103, 0.0, 0.0, 0.9920000471174717, 0.0, 0.0, 0.0, 0.0, 0.0, 1.741172190041194E9, 0.0, 2025-03-05 10:56:30.041
93.0, -173.94461688911542, -168.52924175327644, 12.238822604995221, -67.75763744721189, 0.0, 0.0, 0.9920000471174717, 0.0, 0.0, 0.0, 0.0, 0.0, 1.7411721900416205E9, 0.0, 2025-03-05 10:56:30.041
93.0, -93.2113965456374, -24.098045364487916, 12.403378203045577, 3.902585603762418, 0.0, 0.0, 0.9920000471174717, 0.0, 0.0, 0.0, 0.0, 0.0, 1.7411721900417044E9, 0.0, 2025-03-05 10:56:30.041
94.0, -28.32413231441751, 105.30623300233856, 16.532227754127234, 55.31499029463157, 0.0, 0.0, 0.9920000471174717, 0.0, 0.0, 0.0, 0.0, 0.0, 1.7411721900422163E9, 0.0, 2025-03-05 10:56:30.042
94.0, -114.2969524958171, -42.87234314205125, 12.328580203931779, -18.054367036093026, 0.0, 0.0, 0.9920000471174717, 0.0, 0.0, 0.0, 0.0, 0.0, 1.741172190042302E9, 0.0, 2025-03-05 10:56:30.042
95.0, -176.0987992635928, -168.82469384977594, 9.976183131802827, -69.19375903019682, 0.0, 0.0, 0.9920000471174717, 0.0, 0.0, 0.0, 0.0, 0.0, 1.7411721900428536E9, 0.0, 2025-03-05 10:56:30.042
95.0, -90.79542117426172, -22.549726782832295, 9.534874937031418, 13.031681395601481, 0.0, 0.0, 0.9920000471174717, 0.0, 0.0, 0.0, 0.0, 0.0, 1.7411721900429811E9, 0.0, 2025-03-05 10:56:30.042
96.0, -38.46674099424854, 116.4062560708262, 9.576013836544007, 58.86789525253698, 0.0, 0.0, 0.9920000471174717, 0.0, 0.0, 0.0, 0.0, 0.0, 1.7411721900717866E9, 0.0, 2025-03-05 10:56:30.071
96.0, -117.47212755819783, -32.66615616297349, 8.64477874757722, -12.455736802425236, 0.0, 0.0, 0.9920000471174717, 0.0, 0.0, 0.0, 0.0, 0.0, 1.741172190071906E9, 0.0, 2025-03-05 10:56:30.071
97.0, -177.0262944526039, -163.25972271570936, 8.080053854268044, -67.06575595540926, 0.0, 0.0, 0.9920000471174717, 0.0, 0.0, 0.0, 0.0, 0.0, 1.741172190072124E9, 0.0, 2025-03-05 10:56:30.072
97.0, -95.85176591435447, -24.853505155537277, 10.69424392329529, 14.037714483682066, 0.0, 0.0, 0.9920000471174717, 0.0, 0.0, 0.0, 0.0, 0.0, 1.741172190072198E9, 0.0, 2025-03-05 10:56:30.072
98.0, -33.11120425770059, 110.65802983893082, 9.976183131802827, 68.21016534185037, 0.0, 0.0, 0.9920000471174717, 0.0, 0.0, 0.0, 0.0, 0.0, 1.7411721901011305E9, 0.0, 2025-03-05 10:56:30.101
98.0, -125.34461696492508, -38.84821078972891, 13.596406288910657, -12.68013079976663, 0.0, 0.0, 0.9920000471174717, 0.0, 0.0, 0.0, 0.0, 0.0, 1.7411721901012805E9, 0.0, 2025-03-05 10:56:30.101
99.0, -173.77632139110938, -167.11555957002565, 8.528841848950833, -51.21232004323974, 0.0, 0.0, 0.9920000471174717, 0.0, 0.0, 0.0, 0.0, 0.0, 1.7411721901014397E9, 0.0, 2025-03-05 10:56:30.101
99.0, -99.48320877132937, -17.52704114234075, 9.714390134904534, 17.45598304318264, 0.0, 0.0, 0.9920000471174717, 0.0, 0.0, 0.0, 0.0, 0.0, 1.7411721901015155E9, 0.0, 2025-03-05 10:56:30.101
100.0, -42.8910426418297, 118.78857234260067, 10.985956119839102, 65.05368977924809, 0.0, 0.0, 0.9920000471174717, 0.0, 0.0, 0.0, 0.0, 0.0, 1.7411721901022248E9, 0.0, 2025-03-05 10:56:30.102
100.0, -123.95337418140844, -32.93916885973886, 15.817906862590462, -4.467310497071594, 0.0, 0.0, 0.9920000471174717, 0.0, 0.0, 0.0, 0.0, 0.0, 1.7411721901023061E9, 0.0, 2025-03-05 10:56:30.102
0.0, -176.64856455707923, -165.23999974224716, 15.400908017531037, -54.59318960318342, 0.0, 0.0, 0.9920000471174717, 0.0, 0.0, 0.0, 0.0, 0.0, 1.741172190102769E9, 0.0, 2025-03-05 10:56:30.102
1.0, -98.29018068546429, -21.964432439766824, 10.333343577571213, 16.625725253019482, 0.0, 0.0, 0.9920000471174717, 0.0, 0.0, 0.0, 0.0, 0.0, 1.7411721901314223E9, 0.0, 2025-03-05 10:56:30.131
1.0, -44.15512882685289, 118.36409369762987, 12.86525584757328, 64.48148508602753, 0.0, 0.0, 0.9920000471174717, 0.0, 0.0, 0.0, 0.0, 0.0, 1.7411721901315868E9, 0.0, 2025-03-05 10:56:30.131
2.0, -115.0711117866449, -26.643047284334898, 13.994705634191632, -16.24425545753911, -0.01600000075995922, 0.0, 0.9920000471174717, 0.0, 0.0, 0.0, 0.0, 0.0, 1.741172190131735E9, 0.0, 2025-03-05 10:56:30.131
2.0, -177.0674333521165, -169.65682158991694, 9.839676783420146, -56.758591677527875, -0.01600000075995922, 0.0, 0.9920000471174717, 0.0, 0.0, 0.0, 0.0, 0.0, 1.7411721901319623E9, 0.0, 2025-03-05 10:56:30.131
3.0, -92.2465023570694, -26.17929968982935, 13.949826834723353, 8.842993445228785, -0.01600000075995922, 0.0, 0.9920000471174717, 0.0, 0.0, 0.0, 0.0, 0.0, 1.7411721901322017E9, 0.0, 2025-03-05 10:56:30.132
3.0, -37.378430107142776, 110.04655619617552, 11.791904560290277, 64.29449008824304, -0.01600000075995922, 0.0, 0.9920000471174717, 0.0, 0.0, 0.0, 0.0, 0.0, 1.7411721901323364E9, 0.0, 2025-03-05 10:56:30.132
4.0, -120.04517872771248, -39.89725272729993, 11.634828762151301, -15.46261636679992, -0.01600000075995922, 0.0, 0.9920000471174717, 0.0, 0.0, 0.0, 0.0, 0.0, 1.7411721901611445E9, 0.0, 2025-03-05 10:56:30.161
4.0, -176.1361982631497, -168.96120019815862, 14.50707192812115, -65.22946507716551, -0.01600000075995922, 0.0, 0.9920000471174717, 0.0, 0.0, 0.0, 0.0, 0.0, 1.74117219016132E9, 0.0, 2025-03-05 10:56:30.161
5.0, -93.23757584532723, -19.993505163118243, 12.539884551428258, 12.26874180464074, -0.01600000075995922, 0.0, 0.9920000471174717, 0.0, 0.0, 0.0, 0.0, 0.0, 1.7411721901616645E9, 0.0, 2025-03-05 10:56:30.161
5.0, -41.53719885786995, 113.43490555603057, 12.177114255726337, 66.18313956586644, -0.01600000075995922, 0.0, 0.9920000471174717, 0.0, 0.0, 0.0, 0.0, 0.0, 1.7411721901618445E9, 0.0, 2025-03-05 10:56:30.161
6.0, -114.82427838956937, -26.736544783227146, 10.340823377482593, -9.44885723805055, -0.01600000075995922, 0.0, 0.9920000471174717, 0.0, 0.0, 0.0, 0.0, 0.0, 1.741172190162157E9, 0.0, 2025-03-05 10:56:30.162
6.0, -180.4333433122374, -168.31793740577996, 11.881662159226835, -63.89432079298422, -0.01600000075995922, 0.0, 0.9920000471174717, 0.0, 0.0, 0.0, 0.0, 0.0, 1.7411721901622465E9, 0.0, 2025-03-05 10:56:30.162
7.0, -91.88747196132317, -28.359661363996565, 7.498499411158264, 1.1163601367734373, -0.01600000075995922, 0.0, 0.9920000471174717, 0.0, 0.0, 0.0, 0.0, 0.0, 1.741172190191116E9, 0.0, 2025-03-05 10:56:30.191
7.0, -29.61065789917484, 117.204724711366, 10.217406678944826, 66.50851086201146, -0.01600000075995922, 0.0, 0.9920000471174717, 0.0, 0.0, 0.0, 0.0, 0.0, 1.7411721901912675E9, 0.0, 2025-03-05 10:56:30.191
8.0, -120.4116889233701, -40.96686411462724, 11.507672163657844, -19.48300881916657, -0.01600000075995922, 0.0, 0.9920000471174717, 0.0, 0.0, 0.0, 0.0, 0.0, 1.7411721901916177E9, 0.0, 2025-03-05 10:56:30.191
8.0, -174.81975347874686, -170.76757187675685, 10.000492481514812, -71.0150903086178, -0.01600000075995922, 0.0, 0.9920000471174717, 0.0, 0.0, 0.0, 0.0, 0.0, 1.7411721901917448E9, 0.0, 2025-03-05 10:56:30.191
9.0, -93.3235935443081, -26.9011003812775, 8.321277401410043, 16.34523275634274, -0.01600000075995922, 0.0, 0.9920000471174717, 0.0, 0.0, 0.0, 0.0, 0.0, 1.741172190192287E9, 0.0, 2025-03-05 10:56:30.192
9.0, -37.419569006655365, 101.87113489303738, 13.444940340705216, 64.88539428124204, -0.01600000075995922, 0.0, 0.9920000471174717, 0.0, 0.0, 0.0, 0.0, 0.0, 1.7411721901924305E9, 0.0, 2025-03-05 10:56:30.192
10.0, -121.2606462133117, -36.69963826518506, 8.968280093744397, -14.037714483682066, -0.01600000075995922, 0.0, 0.9920000471174717, 0.0, 0.0, 0.0, 0.0, 0.0, 1.741172190221347E9, 0.0, 2025-03-05 10:56:30.221
10.0, -172.87126560183242, -165.32227754127234, 14.723986125551164, -59.918807140085846, -0.01600000075995922, 0.0, 0.9920000471174717, 0.0, 0.0, 0.0, 0.0, 0.0, 1.7411721902215178E9, 0.0, 2025-03-05 10:56:30.221
11.0, -95.01776822423562, -33.00835700891912, 10.939207370392978, 3.3902193098329008, -0.01600000075995922, 0.0, 0.9920000471174717, 0.0, 0.0, 0.0, 0.0, 0.0, 1.7411721902216785E9, 0.0, 2025-03-05 10:56:30.221
11.0, -33.847964548971504, 107.98961122054607, 10.213666778989136, 58.314390059094876, -0.01600000075995922, 0.0, 0.9920000471174717, 0.0, 0.0, 0.0, 0.0, 0.0, 1.7411721902218623E9, 0.0, 2025-03-05 10:56:30.221
12.0, -117.22903406107798, -34.773589788004756, 12.984932646155357, -20.71717580454424, -0.01600000075995922, 0.0, 0.9920000471174717, 0.0, 0.0, 0.0, 0.0, 0.0, 1.7411721902222936E9, 0.0, 2025-03-05 10:56:30.222
12.0, -176.72336255619302, -164.97820674534887, 13.175667543895543, -62.18518651323393, -0.01600000075995922, 0.0, 0.9920000471174717, 0.0, 0.0, 0.0, 0.0, 0.0, 1.741172190222433E9, 0.0, 2025-03-05 10:56:30.222
13.0, -101.0689263525419, -21.68020004313439, 7.730373208411038, 4.149419000837952, -0.01600000075995922, 0.0, 0.9920000471174717, 0.0, 0.0, 0.0, 0.0, 0.0, 1.7411721902514212E9, 0.0, 2025-03-05 10:56:30.251
13.0, -34.1097575458698, 115.03558273706585, 15.26253171917051, 62.50307800946757, -0.01600000075995922, 0.0, 0.9920000471174717, 0.0, 0.0, 0.0, 0.0, 0.0, 1.7411721902515204E9, 0.0, 2025-03-05 10:56:30.251
14.0, -123.0744976918213, -34.825948387384415, 12.726879549212754, -17.770134639460593, -0.01600000075995922, 0.0, 0.9920000471174717, 0.0, 0.0, 0.0, 0.0, 0.0, 1.7411721902516756E9, 0.0, 2025-03-05 10:56:30.251
14.0, -174.6589377806522, -166.23855303041637, 9.23381299059838, -64.31318958802149, -0.01600000075995922, 0.0, 0.9920000471174717, 0.0, 0.0, 0.0, 0.0, 0.0, 1.7411721902517517E9, 0.0, 2025-03-05 10:56:30.251
15.0, -91.3938051671721, -23.161200425587595, 14.028364733792841, 4.994636390823871, -0.01600000075995922, 0.0, 0.9920000471174717, 0.0, 0.0, 0.0, 0.0, 0.0, 1.7411721902521176E9, 0.0, 2025-03-05 10:56:30.252
15.0, -32.06777217006311, 109.8296419987455, 14.05080413352698, 62.28990371199325, -0.01600000075995922, 0.0, 0.9920000471174717, 0.0, 0.0, 0.0, 0.0, 0.0, 1.741172190252205E9, 0.0, 2025-03-05 10:56:30.252
16.0, -112.98798751132563, -32.021023420616984, 10.692373973317444, -17.261508245486766, -0.01600000075995922, 0.0, 0.9920000471174717, 0.0, 0.0, 0.0, 0.0, 0.0, 1.7411721902812076E9, 0.0, 2025-03-05 10:56:30.281
16.0, -172.46361650666222, -160.72594049572945, 12.8951750472188, -59.63457474345341, -0.01600000075995922, 0.0, 0.9920000471174717, 0.0, 0.0, 0.0, 0.0, 0.0, 1.741172190281309E9, 0.0, 2025-03-05 10:56:30.281
17.0, -93.86213913792744, -24.649680607952178, 13.194367043673992, 11.195390517357737, -0.01600000075995922, 0.0, 0.9920000471174717, 0.0, 0.0, 0.0, 0.0, 0.0, 1.7411721902816777E9, 0.0, 2025-03-05 10:56:30.281
17.0, -31.95557517139241, 105.39412065129727, 10.150088479742408, 57.23729887185618, -0.01600000075995922, 0.0, 0.9920000471174717, 0.0, 0.0, 0.0, 0.0, 0.0, 1.7411721902818236E9, 0.0, 2025-03-05 10:56:30.281
18.0, -105.96445539453998, -35.199938382953405, 13.789011136628687, -17.373705244157463, -0.01600000075995922, 0.0, 0.9920000471174717, 0.0, 0.0, 0.0, 0.0, 0.0, 1.741172190282287E9, 0.0, 2025-03-05 10:56:30.282
18.0, -172.87126560183242, -168.46753340400755, 11.23839936684817, -72.89252008637413, -0.01600000075995922, 0.0, 0.9920000471174717, 0.0, 0.0, 0.0, 0.0, 0.0, 1.7411721902824163E9, 0.0, 2025-03-05 10:56:30.282
19.0, -97.71049619233236, -32.27907651755959, 11.66100806184113, 7.219876864459366, -0.01600000075995922, 0.0, 0.9920000471174717, 0.0, 0.0, 0.0, 0.0, 0.0, 1.74117219031155E9, 0.0, 2025-03-05 10:56:30.311
19.0, -37.90201610093936, 114.31752194557339, 12.8577760476619, 61.82989601744339, -0.01600000075995922, 0.0, 0.9920000471174717, 0.0, 0.0, 0.0, 0.0, 0.0, 1.7411721903117695E9, 0.0, 2025-03-05 10:56:30.311
20.0, -124.99680626904592, -33.255190405994654, 15.658961114473641, -15.49253556644544, -0.01600000075995922, 0.0, 0.9920000471174717, 0.0, 0.0, 0.0, 0.0, 0.0, 1.741172190311965E9, 0.0, 2025-03-05 10:56:30.311
20.0, -174.07925328752026, -159.7086877077818, 12.48378605209291, -70.6074412134476, -0.01600000075995922, 0.0, 0.9920000471174717, 0.0, 0.0, 0.0, 0.0, 0.0, 1.7411721903120985E9, 0.0, 2025-03-05 10:56:30.312
21.0, -93.37969204364344, -23.879261217080057, 11.552550963126123, 3.895105803851038, -0.01600000075995922, 0.0, 0.9920000471174717, 0.0, 0.0, 0.0, 0.0, 0.0, 1.7411721903124084E9, 0.0, 2025-03-05 10:56:30.312
21.0, -32.12761056935415, 119.06345498934388, 14.05828393343836, 66.1233011665754, -0.01600000075995922, 0.0, 0.9920000471174717, 0.0, 0.0, 0.0, 0.0, 0.0, 1.7411721903126297E9, 0.0, 2025-03-05 10:56:30.312
22.0, -118.2612464488484, -30.22587144188583, 14.47715272847563, -14.939030373003334, 0.0, 0.0, 0.9920000471174717, 0.0, 0.0, 0.0, 0.0, 0.0, 1.7411721903411384E9, 0.0, 2025-03-05 10:56:30.341
22.0, -172.6543514044024, -162.263039377518, 12.599722950719297, -65.27808377658948, 0.0, 0.0, 0.9920000471174717, 0.0, 0.0, 0.0, 0.0, 0.0, 1.7411721903413062E9, 0.0, 2025-03-05 10:56:30.341
23.0, -89.84922648547217, -25.01993070356548, 10.793351272121072, 11.980769508052617, 0.0, 0.0, 0.9920000471174717, 0.0, 0.0, 0.0, 0.0, 0.0, 1.7411721903415694E9, 0.0, 2025-03-05 10:56:30.341
23.0, -33.2944593555294, 118.51742959581316, 9.525525187142193, 62.64893410773948, 0.0, 0.0, 0.9920000471174717, 0.0, 0.0, 0.0, 0.0, 0.0, 1.7411721903416855E9, 0.0, 2025-03-05 10:56:30.341
24.0, -114.79061928996816, -27.566802573390305, 16.298484006896615, -14.957729872781783, 0.0, 0.0, 0.9920000471174717, 0.0, 0.0, 0.0, 0.0, 0.0, 1.7411721903422642E9, 0.0, 2025-03-05 10:56:30.342
24.0, -177.6583375451155, -165.12406284362078, 15.124155420809984, -72.58584829000756, 0.0, 0.0, 0.9920000471174717, 0.0, 0.0, 0.0, 0.0, 0.0, 1.7411721903423882E9, 0.0, 2025-03-05 10:56:30.342
25.0, -94.3595458320342, -23.76332431845367, 13.631935338489711, -1.3220546343363822, 0.0, 0.0, 0.9920000471174717, 0.0, 0.0, 0.0, 0.0, 0.0, 1.7411721903712518E9, 0.0, 2025-03-05 10:56:30.371
25.0, -31.749880673829466, 112.61960736569017, 12.652081550098956, 51.967779834289104, 0.0, 0.0, 0.9920000471174717, 0.0, 0.0, 0.0, 0.0, 0.0, 1.741172190371413E9, 0.0, 2025-03-05 10:56:30.371
26.0, -113.91548270033672, -29.496590950526297, 12.360369353555143, -21.16970369918272, 0.0, 0.0, 0.9920000471174717, 0.0, 0.0, 0.0, 0.0, 0.0, 1.741172190371754E9, 0.0, 2025-03-05 10:56:30.371
26.0, -176.54010745836422, -157.38246993534267, 11.444093864411116, -73.86489407485351, 0.0, 0.0, 0.9920000471174717, 0.0, 0.0, 0.0, 0.0, 0.0, 1.7411721903719218E9, 0.0, 2025-03-05 10:56:30.371
27.0, -96.0649402118288, -21.994351639412344, 12.016298557631671, -0.10658714873716235, 0.0, 0.0, 0.9920000471174717, 0.0, 0.0, 0.0, 0.0, 0.0, 1.7411721903729196E9, 0.0, 2025-03-05 10:56:30.372
27.0, -35.6655559274368, 112.0174834728241, 11.156121567822993, 58.0825162618421, 0.0, 0.0, 0.9920000471174717, 0.0, 0.0, 0.0, 0.0, 0.0, 1.7411721903730912E9, 0.0, 2025-03-05 10:56:30.373
28.0, -118.49686014605686, -26.407433587126434, 9.061777592636645, -15.365378967951983, 0.0, 0.0, 0.9920000471174717, 0.0, 0.0, 0.0, 0.0, 0.0, 1.7411721904011931E9, 0.0, 2025-03-05 10:56:30.401
28.0, -172.81890700245276, -164.30876465328038, 10.804570971988142, -72.91495948610827, 0.0, 0.0, 0.9920000471174717, 0.0, 0.0, 0.0, 0.0, 0.0, 1.7411721904013536E9, 0.0, 2025-03-05 10:56:30.401
29.0, -98.48465548316017, -20.640507855452597, 8.86356289498508, 1.9092189273796976, 0.0, 0.0, 0.9920000471174717, 0.0, 0.0, 0.0, 0.0, 0.0, 1.7411721904015155E9, 0.0, 2025-03-05 10:56:30.401
29.0, -40.50872637005523, 112.9449786618352, 13.24672564305365, 58.299430459272116, 0.0, 0.0, 0.9920000471174717, 0.0, 0.0, 0.0, 0.0, 0.0, 1.7411721904017148E9, 0.0, 2025-03-05 10:56:30.401
30.0, -122.24050000170246, -31.40393992792815, 11.189780667424202, -18.970642525237054, 0.0, 0.0, 0.9920000471174717, 0.0, 0.0, 0.0, 0.0, 0.0, 1.7411721904021883E9, 0.0, 2025-03-05 10:56:30.402
30.0, -176.64856455707923, -160.0415388038382, 12.109796056523919, -72.55218919040635, 0.0, 0.0, 0.9920000471174717, 0.0, 0.0, 0.0, 0.0, 0.0, 1.7411721904023657E9, 0.0, 2025-03-05 10:56:30.402
31.0, -101.19234305107966, -23.80820311792195, 13.69925353769213, 3.049888413865119, 0.0, 0.0, 0.9920000471174717, 0.0, 0.0, 0.0, 0.0, 0.0, 1.7411721904311006E9, 0.0, 2025-03-05 10:56:30.431
31.0, -42.82372444262728, 112.74676396418363, 11.616129262372851, 63.08276250259951, 0.0, 0.0, 0.9920000471174717, 0.0, 0.0, 0.0, 0.0, 0.0, 1.7411721904312668E9, 0.0, 2025-03-05 10:56:30.431
32.0, -122.49107329873368, -28.067949167452753, 8.276398601941764, -15.548634065780789, 0.0, 0.0, 0.9920000471174717, 0.0, 0.0, 0.0, 0.0, 0.0, 1.7411721904315577E9, 0.0, 2025-03-05 10:56:30.431
32.0, -173.70900319190696, -161.31310478877276, 11.156121567822993, -64.18977288948372, 0.0, 0.0, 0.9920000471174717, 0.0, 0.0, 0.0, 0.0, 0.0, 1.7411721904316838E9, 0.0, 2025-03-05 10:56:30.431
33.0, -94.82703332649544, -30.11741434317082, 8.770065396092832, 2.129873024765402, 0.0, 0.0, 0.9920000471174717, 0.0, 0.0, 0.0, 0.0, 0.0, 1.7411721904324892E9, 0.0, 2025-03-05 10:56:30.432
33.0, -26.858091531787068, 108.16912641841918, 9.66764138545841, 56.695013378281146, 0.0, 0.0, 0.9920000471174717, 0.0, 0.0, 0.0, 0.0, 0.0, 1.7411721904325955E9, 0.0, 2025-03-05 10:56:30.432
34.0, -108.82173896068707, -33.71519810054451, 14.589349727146327, -26.476621736306697, 0.0, 0.0, 0.9920000471174717, 0.0, 0.0, 0.0, 0.0, 0.0, 1.7411721904612885E9, 0.0, 2025-03-05 10:56:30.461
34.0, -162.63515942310914, -164.29006515350193, 15.644001514650881, -75.66378595354035, 0.0, 0.0, 0.9920000471174717, 0.0, 0.0, 0.0, 0.0, 0.0, 1.7411721904615593E9, 0.0, 2025-03-05 10:56:30.461
35.0, -88.41684480244294, -22.233705236576498, 13.336483241990209, -3.786648705136031, 0.0, 0.0, 0.9920000471174717, 0.0, 0.0, 0.0, 0.0, 0.0, 1.7411721904618585E9, 0.0, 2025-03-05 10:56:30.461
35.0, -28.219415115658194, 108.98442460875958, 12.027518257498741, 47.102169991936535, 0.0, 0.0, 0.9920000471174717, 0.0, 0.0, 0.0, 0.0, 0.0, 1.7411721904619884E9, 0.0, 2025-03-05 10:56:30.461
36.0, -107.26594057912007, -28.12030776683241, 11.623609062284231, -22.33655248535797, 0.0, 0.0, 0.9920000471174717, 0.0, 0.0, 0.0, 0.0, 0.0, 1.7411721904622197E9, 0.0, 2025-03-05 10:56:30.462
36.0, -169.20242374530062, -166.82945722341537, 9.140315491706133, -76.14997294778004, 0.0, 0.0, 0.9920000471174717, 0.0, 0.0, 0.0, 0.0, 0.0, 1.741172190462333E9, 0.0, 2025-03-05 10:56:30.462
37.0, -88.55148120084777, -25.558476297184825, 9.723739884793758, -0.46935744443908334, 0.0, 0.0, 0.9920000471174717, 0.0, 0.0, 0.0, 0.0, 0.0, 1.7411721904911537E9, 0.0, 2025-03-05 10:56:30.491
37.0, -28.70934200985357, 113.35636765696108, 14.529511327855289, 54.46603300468996, 0.0, 0.0, 0.9920000471174717, 0.0, 0.0, 0.0, 0.0, 0.0, 1.7411721904913497E9, 0.0, 2025-03-05 10:56:30.491
38.0, -111.9595150235109, -33.31502880528569, 10.905548270791769, -18.850965726654977, 0.0, 0.0, 0.9920000471174717, 0.0, 0.0, 0.0, 0.0, 0.0, 1.7411721904916413E9, 0.0, 2025-03-05 10:56:30.491
38.0, -170.34683313174173, -165.72244683653116, 13.205586743541062, -64.76571748265997, 0.0, 0.0, 0.9920000471174717, 0.0, 0.0, 0.0, 0.0, 0.0, 1.7411721904917285E9, 0.0, 2025-03-05 10:56:30.491
39.0, -88.60383980022743, -23.535190421156585, 14.349996129982173, 2.773135817144066, 0.0, 0.0, 0.9920000471174717, 0.0, 0.0, 0.0, 0.0, 0.0, 1.741172190492272E9, 0.0, 2025-03-05 10:56:30.492
39.0, -35.30652553169057, 110.75339728780091, 13.934867234900594, 58.396667858120054, 0.0, 0.0, 0.9920000471174717, 0.0, 0.0, 0.0, 0.0, 0.0, 1.741172190492368E9, 0.0, 2025-03-05 10:56:30.492
40.0, -108.75068086152896, -27.615421272814274, 11.563770662993193, -13.832019986119121, 0.0, 0.0, 0.9920000471174717, 0.0, 0.0, 0.0, 0.0, 0.0, 1.7411721905213988E9, 0.0, 2025-03-05 10:56:30.521
40.0, -163.36443991446868, -169.69048068951815, 16.231165807694197, -68.81228923471645, 0.0, 0.0, 0.9920000471174717, 0.0, 0.0, 0.0, 0.0, 0.0, 1.7411721905214968E9, 0.0, 2025-03-05 10:56:30.521
41.0, -83.7232703580521, -20.07952286209911, 9.862116183154285, 12.444517102558166, 0.0, 0.0, 0.9920000471174717, 0.0, 0.0, 0.0, 0.0, 0.0, 1.7411721905216644E9, 0.0, 2025-03-05 10:56:30.521
41.0, -28.167056516278535, 121.89455925580114, 13.156968044117093, 66.09712186688557, 0.0, 0.0, 0.9920000471174717, 0.0, 0.0, 0.0, 0.0, 0.0, 1.7411721905217383E9, 0.0, 2025-03-05 10:56:30.521
42.0, -112.91318951221183, -22.450619434006512, 13.631935338489711, -12.044347807299346, 0.0, 0.0, 0.9920000471174717, 0.0, 0.0, 0.0, 0.0, 0.0, 1.741172190522161E9, 0.0, 2025-03-05 10:56:30.522
42.0, -169.2847015443258, -159.0766446152702, 15.367248917929828, -64.46278558624908, 0.0, 0.0, 0.9920000471174717, 0.0, 0.0, 0.0, 0.0, 0.0, 1.741172190522248E9, 0.0, 2025-03-05 10:56:30.522
43.0, -86.35242002690211, -17.540130792185664, 11.391735265031457, 9.254382440354675, 0.0, 0.0, 0.9920000471174717, 0.0, 0.0, 0.0, 0.0, 0.0, 1.7411721905512872E9, 0.0, 2025-03-05 10:56:30.551
43.0, -27.19094262784347, 127.06310099456459, 13.26916504278779, 66.32525576418266, 0.0, 0.0, 0.9920000471174717, 0.0, 0.0, 0.0, 0.0, 0.0, 1.741172190551385E9, 0.0, 2025-03-05 10:56:30.551
44.0, -110.85998443653807, -25.614574796520174, 16.578976503573358, -11.157991517800838, 0.0, 0.0, 0.9920000471174717, 0.0, 0.0, 0.0, 0.0, 0.0, 1.7411721905515113E9, 0.0, 2025-03-05 10:56:30.551
44.0, -170.66098472801968, -160.224793901667, 13.059730645269156, -59.74677174212411, 0.0, 0.0, 0.9920000471174717, 0.0, 0.0, 0.0, 0.0, 0.0, 1.7411721905515823E9, 0.0, 2025-03-05 10:56:30.551
45.0, -89.10124649433419, -19.200646372511983, 10.774651772342622, 11.943370508495718, 0.0, 0.0, 0.9920000471174717, 0.0, 0.0, 0.0, 0.0, 0.0, 1.7411721905523393E9, 0.0, 2025-03-05 10:56:30.552
45.0, -26.031573641579598, 115.54046923108399, 13.014851845800877, 70.02401682035998, 0.0, 0.0, 0.9920000471174717, 0.0, 0.0, 0.0, 0.0, 0.0, 1.741172190552576E9, 0.0, 2025-03-05 10:56:30.552
46.0, -114.56248539267108, -30.887833734042943, 14.241539031267166, -18.413397431839257, 0.0, 0.0, 0.9920000471174717, 0.0, 0.0, 0.0, 0.0, 0.0, 1.7411721905815191E9, 0.0, 2025-03-05 10:56:30.581
46.0, -170.6946438276209, -168.7106269011274, 12.749318948946893, -64.67595988372341, 0.0, 0.0, 0.9920000471174717, 0.0, 0.0, 0.0, 0.0, 0.0, 1.7411721905816772E9, 0.0, 2025-03-05 10:56:30.581
47.0, -91.40128496708348, -29.081462055444717, 7.487279711291194, 1.0228626378811896, 0.0, 0.0, 0.9920000471174717, 0.0, 0.0, 0.0, 0.0, 0.0, 1.741172190581796E9, 0.0, 2025-03-05 10:56:30.581
47.0, -23.55201997095719, 105.5324969496578, 7.191827614791691, 62.70129270711914, 0.0, 0.0, 0.9920000471174717, 0.0, 0.0, 0.0, 0.0, 0.0, 1.7411721905818677E9, 0.0, 2025-03-05 10:56:30.581
48.0, -104.98460160614923, -42.94153129123151, 10.4492804761976, -18.843485926743597, 0.0, 0.0, 0.9920000471174717, 0.0, 0.0, 0.0, 0.0, 0.0, 1.7411721906113677E9, 0.0, 2025-03-05 10:56:30.611
48.0, -163.469157113228, -167.96264690998942, 11.380515565164387, -65.33044237596914, 0.0, 0.0, 0.9920000471174717, 0.0, 0.0, 0.0, 0.0, 0.0, 1.7411721906116285E9, 0.0, 2025-03-05 10:56:30.611
49.0, -86.38233922654763, -34.75115038827062, 10.531558275222778, 13.88063868554309, 0.0, 0.0, 0.9920000471174717, 0.0, 0.0, 0.0, 0.0, 0.0, 1.7411721906119108E9, 0.0, 2025-03-05 10:56:30.611
49.0, -20.848072302993387, 107.32390902843326, 10.378222377039492, 58.01893796259537, 0.0, 0.0, 0.9920000471174717, 0.0, 0.0, 0.0, 0.0, 0.0, 1.7411721906120057E9, 0.0, 2025-03-05 10:56:30.612
50.0, -107.71846847375855, -42.844293892383575, 9.600323186255991, -20.926610202062875, 0.0, 0.0, 1.008000047877431, 0.0, 0.0, 0.0, 0.0, 0.0, 1.7411721906128821E9, 0.0, 2025-03-05 10:56:30.612
50.0, -163.11012671748176, -169.64934179000556, 11.784424760378897, -66.57956896116957, 0.0, 0.0, 1.008000047877431, 0.0, 0.0, 0.0, 0.0, 0.0, 1.7411721906129751E9, 0.0, 2025-03-05 10:56:30.612
51.0, -83.56245465995744, -34.71749128866941, 10.673674473538995, 11.707756811287254, 0.0, 0.0, 1.008000047877431, 0.0, 0.0, 0.0, 0.0, 0.0, 1.7411721906131632E9, 0.0, 2025-03-05 10:56:30.613
51.0, -20.29830700950697, 106.17575974203646, 11.64978836197406, 65.34914187574759, 0.0, 0.0, 1.008000047877431, 0.0, 0.0, 0.0, 0.0, 0.0, 1.7411721906132824E9, 0.0, 2025-03-05 10:56:30.613
52.0, -104.11320491647348, -31.609634425491095, 9.301131189800799, -17.138091546949, -0.01600000075995922, 0.0, 1.008000047877431, 0.0, 0.0, 0.0, 0.0, 0.0, 1.74117219064139E9, 0.0, 2025-03-05 10:56:30.641
52.0, -163.15126561699435, -168.28053840622306, 8.291358201764524, -60.62564823171124, -0.01600000075995922, 0.0, 1.008000047877431, 0.0, 0.0, 0.0, 0.0, 0.0, 1.7411721906415546E9, 0.0, 2025-03-05 10:56:30.641
53.0, -78.85018071578816, -31.632073825225234, 12.031258157454431, 16.427510555367917, -0.01600000075995922, 0.0, 1.008000047877431, 0.0, 0.0, 0.0, 0.0, 0.0, 1.7411721906416867E9, 0.0, 2025-03-05 10:56:30.641
53.0, -16.906217749696225, 107.63432072475553, 10.954166970215738, 67.21909185359254, -0.01600000075995922, 0.0, 1.008000047877431, 0.0, 0.0, 0.0, 0.0, 0.0, 1.7411721906418436E9, 0.0, 2025-03-05 10:56:30.641
54.0, -105.1042784047313, -36.70711806509644, 11.574990362860262, -10.166918029543012, -0.01600000075995922, 0.0, 1.008000047877431, 0.0, 0.0, 0.0, 0.0, 0.0, 1.7411721906422105E9, 0.0, 2025-03-05 10:56:30.642
54.0, -163.10638681752607, -173.4116811454296, 15.587903015315533, -61.575582820456475, -0.01600000075995922, 0.0, 1.008000047877431, 0.0, 0.0, 0.0, 0.0, 0.0, 1.7411721906423712E9, 0.0, 2025-03-05 10:56:30.642
55.0, -81.77478248113766, -30.895313533954322, 11.597429762594402, 14.26584838097915, -0.01600000075995922, 0.0, 1.008000047877431, 0.0, 0.0, 0.0, 0.0, 0.0, 1.7411721906711955E9, 0.0, 2025-03-05 10:56:30.671
55.0, -20.481562107335776, 109.41451310366392, 7.22922661434859, 62.18518651323393, -0.01600000075995922, 0.0, 1.008000047877431, 0.0, 0.0, 0.0, 0.0, 0.0, 1.7411721906712916E9, 0.0, 2025-03-05 10:56:30.671
56.0, -112.16146962111816, -38.32649474591017, 10.4866794757545, -15.46635626675561, -0.01600000075995922, 0.0, 1.008000047877431, 0.0, 0.0, 0.0, 0.0, 0.0, 1.741172190671572E9, 0.0, 2025-03-05 10:56:30.671
56.0, -162.0554749299772, -169.57828369084746, 11.537591363303363, -56.57159667974338, -0.01600000075995922, 0.0, 1.008000047877431, 0.0, 0.0, 0.0, 0.0, 0.0, 1.741172190671734E9, 0.0, 2025-03-05 10:56:30.671
57.0, -84.90133884409443, -34.16772599518299, 11.526371663436294, 12.392158503178507, -0.01600000075995922, 0.0, 1.008000047877431, 0.0, 0.0, 0.0, 0.0, 0.0, 1.7411721906723392E9, 0.0, 2025-03-05 10:56:30.672
57.0, -25.814659444149584, 109.37337420415133, 11.829303559847176, 69.0142438323237, -0.01600000075995922, 0.0, 1.008000047877431, 0.0, 0.0, 0.0, 0.0, 0.0, 1.7411721906725376E9, 0.0, 2025-03-05 10:56:30.672
58.0, -112.23252772027627, -29.234797953628004, 14.91846092324704, -17.728995739948004, -0.01600000075995922, 0.0, 1.008000047877431, 0.0, 0.0, 0.0, 0.0, 0.0, 1.7411721907011132E9, 0.0, 2025-03-05 10:56:30.701
58.0, -169.2847015443258, -170.41976118087769, 12.382808753289282, -73.7938359756954, -0.01600000075995922, 0.0, 1.008000047877431, 0.0, 0.0, 0.0, 0.0, 0.0, 1.741172190701219E9, 0.0, 2025-03-05 10:56:30.701
59.0, -82.55642157187685, -35.588887978345156, 12.016298557631671, 4.437391297426075, -0.01600000075995922, 0.0, 1.008000047877431, 0.0, 0.0, 0.0, 0.0, 0.0, 1.741172190701564E9, 0.0, 2025-03-05 10:56:30.701
59.0, -20.69099650485441, 110.33452849276364, 10.49041937571019, 60.012304638978094, -0.01600000075995922, 0.0, 1.008000047877431, 0.0, 0.0, 0.0, 0.0, 0.0, 1.741172190701648E9, 0.0, 2025-03-05 10:56:30.701
60.0, -111.23397443210706, -34.16772599518299, 10.108949580229819, -22.38143128482625, -0.01600000075995922, 0.0, 1.008000047877431, 0.0, 0.0, 0.0, 0.0, 0.0, 1.7411721907021554E9, 0.0, 2025-03-05 10:56:30.702
60.0, -163.07646761788055, -181.17571345344186, 11.548811063170433, -71.00387060875073, -0.01600000075995922, 0.0, 1.008000047877431, 0.0, 0.0, 0.0, 0.0, 0.0, 1.7411721907022414E9, 0.0, 2025-03-05 10:56:30.702
61.0, -85.63061933545396, -42.859253492206335, 12.539884551428258, 0.024309349711984396, -0.01600000075995922, 0.0, 1.008000047877431, 0.0, 0.0, 0.0, 0.0, 0.0, 1.7411721907313073E9, 0.0, 2025-03-05 10:56:30.731
61.0, -24.550573259126395, 102.03195059113204, 12.225732955150306, 56.93810687540099, -0.01600000075995922, 0.0, 1.008000047877431, 0.0, 0.0, 0.0, 0.0, 0.0, 1.7411721907315884E9, 0.0, 2025-03-05 10:56:30.731
62.0, -108.56742576370016, -46.430857949890196, 12.315490554086864, -16.517268154304475, -0.01600000075995922, 0.0, 1.008000047877431, 0.0, 0.0, 0.0, 0.0, 0.0, 1.7411721907318285E9, 0.0, 2025-03-05 10:56:30.731
62.0, -161.21773733990267, -178.76347798202187, 15.969372810795903, -58.28821075940505, -0.01600000075995922, 0.0, 1.008000047877431, 0.0, 0.0, 0.0, 0.0, 0.0, 1.7411721907319665E9, 0.0, 2025-03-05 10:56:30.731
63.0, -85.85127343283966, -31.867687522433698, 8.83364369533956, 11.90223160898313, -0.01600000075995922, 0.0, 1.008000047877431, 0.0, 0.0, 0.0, 0.0, 0.0, 1.741172190732169E9, 0.0, 2025-03-05 10:56:30.732
63.0, -28.43632931308821, 110.03159659635276, 11.978899558074772, 63.557729796972126, -0.01600000075995922, 0.0, 1.008000047877431, 0.0, 0.0, 0.0, 0.0, 0.0, 1.7411721907322671E9, 0.0, 2025-03-05 10:56:30.732
64.0, -115.65453617973253, -35.596367778256536, 11.085063468664885, -14.901631373446435, -0.01600000075995922, 0.0, 1.008000047877431, 0.0, 0.0, 0.0, 0.0, 0.0, 1.7411721907611017E9, 0.0, 2025-03-05 10:56:30.761
64.0, -173.82120019057766, -162.30791817698628, 14.806263924576342, -68.00821074424312, -0.01600000075995922, 0.0, 1.008000047877431, 0.0, 0.0, 0.0, 0.0, 0.0, 1.7411721907612696E9, 0.0, 2025-03-05 10:56:30.761
65.0, -90.4326508785598, -19.36894187051803, 10.400661776773632, 7.092720265965909, -0.01600000075995922, 0.0, 1.008000047877431, 0.0, 0.0, 0.0, 0.0, 0.0, 1.7411721907614942E9, 0.0, 2025-03-05 10:56:30.761
65.0, -25.384570949245244, 118.46881089638919, 11.111242768354714, 62.62275480804965, -0.01600000075995922, 0.0, 1.008000047877431, 0.0, 0.0, 0.0, 0.0, 0.0, 1.7411721907615921E9, 0.0, 2025-03-05 10:56:30.761
66.0, -115.67323567951098, -28.475598262622952, 13.302824142389, -8.113712953869253, -0.01600000075995922, 0.0, 1.008000047877431, 0.0, 0.0, 0.0, 0.0, 0.0, 1.7411721907622356E9, 0.0, 2025-03-05 10:56:30.762
66.0, -171.20327022159472, -164.61917634960264, 11.496452463790774, -72.28291639359668, -0.01600000075995922, 0.0, 1.008000047877431, 0.0, 0.0, 0.0, 0.0, 0.0, 1.7411721907624176E9, 0.0, 2025-03-05 10:56:30.762
67.0, -94.5091418302618, -26.14564059022814, 12.281831454485655, 2.0363755258731544, -0.01600000075995922, 0.0, 1.008000047877431, 0.0, 0.0, 0.0, 0.0, 0.0, 1.7411721907912798E9, 0.0, 2025-03-05 10:56:30.791
67.0, -27.96136201871559, 112.35781436879188, 12.10605615656823, 67.22283175354823, -0.01600000075995922, 0.0, 1.008000047877431, 0.0, 0.0, 0.0, 0.0, 0.0, 1.7411721907913976E9, 0.0, 2025-03-05 10:56:30.791
68.0, -116.52593286940828, -27.495744474232197, 10.138868779875338, -10.963516720104963, -0.01600000075995922, 0.0, 1.008000047877431, 0.0, 0.0, 0.0, 0.0, 0.0, 1.7411721907915244E9, 0.0, 2025-03-05 10:56:30.791
68.0, -170.96765652438626, -161.99376658070832, 10.224886478856206, -65.50995757384226, -0.01600000075995922, 0.0, 1.008000047877431, 0.0, 0.0, 0.0, 0.0, 0.0, 1.7411721907915995E9, 0.0, 2025-03-05 10:56:30.791
69.0, -94.73353582760319, -23.168680225498974, 14.155521332286298, 3.378999609965831, -0.01600000075995922, 0.0, 1.008000047877431, 0.0, 0.0, 0.0, 0.0, 0.0, 1.7411721907922783E9, 0.0, 2025-03-05 10:56:30.792
69.0, -32.72225466230884, 109.79598289914429, 5.61732973344624, 56.13028848497197, -0.01600000075995922, 0.0, 1.008000047877431, 0.0, 0.0, 0.0, 0.0, 0.0, 1.7411721907923965E9, 0.0, 2025-03-05 10:56:30.792
70.0, -112.07919182209298, -29.526510150171816, 13.557137339375913, -20.171150411013514, -0.01600000075995922, 0.0, 1.008000047877431, 0.0, 0.0, 0.0, 0.0, 0.0, 1.7411721908214629E9, 0.0, 2025-03-05 10:56:30.821
70.0, -170.7320428271778, -176.36246221046895, 14.09568293299526, -67.12185445474461, -0.01600000075995922, 0.0, 1.008000047877431, 0.0, 0.0, 0.0, 0.0, 0.0, 1.741172190821731E9, 0.0, 2025-03-05 10:56:30.821
71.0, -89.89410528494045, -39.695298129692674, 13.366402441635728, 5.144232389051467, -0.01600000075995922, 0.0, 1.008000047877431, 0.0, 0.0, 0.0, 0.0, 0.0, 1.7411721908221629E9, 0.0, 2025-03-05 10:56:30.822
71.0, -24.206502463202924, 106.59836843702942, 15.169034220278263, 60.68922653095797, -0.01600000075995922, 0.0, 1.008000047877431, 0.0, 0.0, 0.0, 0.0, 0.0, 1.7411721908222988E9, 0.0, 2025-03-05 10:56:30.822
72.0, -107.16496328031644, -34.867087286897004, 12.020038457587361, -14.621138876769692, -0.01600000075995922, 0.0, 1.008000047877431, 0.0, 0.0, 0.0, 0.0, 0.0, 1.741172190822806E9, 0.0, 2025-03-05 10:56:30.822
72.0, -169.18372424552217, -174.54113093204796, 10.266025378368795, -67.06949585536495, -0.01600000075995922, 0.0, 1.008000047877431, 0.0, 0.0, 0.0, 0.0, 0.0, 1.7411721908230069E9, 0.0, 2025-03-05 10:56:30.823
73.0, -86.19534422876313, -34.3135820934549, 8.205340502783656, 5.866033080499619, -0.01600000075995922, 0.0, 1.008000047877431, 0.0, 0.0, 0.0, 0.0, 0.0, 1.7411721908511152E9, 0.0, 2025-03-05 10:56:30.851
73.0, -26.899230431299657, 103.85702176950872, 14.540731027722359, 66.6057482608594, -0.01600000075995922, 0.0, 1.008000047877431, 0.0, 0.0, 0.0, 0.0, 0.0, 1.7411721908512795E9, 0.0, 2025-03-05 10:56:30.851
74.0, -111.59300482785329, -43.60349358338863, 10.389442076906562, -15.619692164938897, -0.01600000075995922, 0.0, 1.008000047877431, 0.0, 0.0, 0.0, 0.0, 0.0, 1.741172190851522E9, 0.0, 2025-03-05 10:56:30.851
74.0, -169.8793456372805, -172.96289315074682, 12.03873795736581, -67.1592534543015, -0.01600000075995922, 0.0, 1.008000047877431, 0.0, 0.0, 0.0, 0.0, 0.0, 1.741172190851617E9, 0.0, 2025-03-05 10:56:30.851
75.0, -87.18641771702096, -32.0883416198194, 11.990119257941842, 3.6744517064653337, -0.01600000075995922, 0.0, 1.008000047877431, 0.0, 0.0, 0.0, 0.0, 0.0, 1.7411721908521707E9, 0.0, 2025-03-05 10:56:30.852
75.0, -31.906956471968442, 107.94473242107779, 10.43806077633053, 66.91615995718166, -0.01600000075995922, 0.0, 1.008000047877431, 0.0, 0.0, 0.0, 0.0, 0.0, 1.7411721908523962E9, 0.0, 2025-03-05 10:56:30.852
76.0, -115.02997288713232, -38.491050343960524, 11.264578666538, -9.998622531536967, -0.01600000075995922, 0.0, 1.008000047877431, 0.0, 0.0, 0.0, 0.0, 0.0, 1.741172190881595E9, 0.0, 2025-03-05 10:56:30.881
76.0, -176.024001264479, -171.60904936678708, 13.108349344693124, -61.43720652209595, -0.01600000075995922, 0.0, 1.008000047877431, 0.0, 0.0, 0.0, 0.0, 0.0, 1.7411721908817413E9, 0.0, 2025-03-05 10:56:30.881
77.0, -94.86443232605234, -31.74053092394024, 11.563770662993193, 5.181631388608366, -0.01600000075995922, 0.0, 1.008000047877431, 0.0, 0.0, 0.0, 0.0, 0.0, 1.741172190881838E9, 0.0, 2025-03-05 10:56:30.881
77.0, -26.01661404175684, 113.6817389531061, 8.534451698884368, 66.25419766502455, -0.01600000075995922, 0.0, 1.008000047877431, 0.0, 0.0, 0.0, 0.0, 0.0, 1.7411721908819268E9, 0.0, 2025-03-05 10:56:30.881
78.0, -116.99716026382521, -32.021023420616984, 14.364955729804933, -19.797160415444523, -0.01600000075995922, 0.0, 1.008000047877431, 0.0, 0.0, 0.0, 0.0, 0.0, 1.7411721908821502E9, 0.0, 2025-03-05 10:56:30.882
78.0, -178.1819235389121, -169.57828369084746, 11.096283168531954, -67.85861474601552, -0.01600000075995922, 0.0, 1.008000047877431, 0.0, 0.0, 0.0, 0.0, 0.0, 1.741172190882356E9, 0.0, 2025-03-05 10:56:30.882
79.0, -92.12308565853164, -27.74257787130773, 12.992412446066737, 10.27537512825802, -0.01600000075995922, 0.0, 1.008000047877431, 0.0, 0.0, 0.0, 0.0, 0.0, 1.7411721909112084E9, 0.0, 2025-03-05 10:56:30.911
79.0, -32.6998152625747, 117.92278550285846, 11.328156965784729, 58.389188058208674, -0.01600000075995922, 0.0, 1.008000047877431, 0.0, 0.0, 0.0, 0.0, 0.0, 1.741172190911354E9, 0.0, 2025-03-05 10:56:30.911
80.0, -113.53401290485635, -28.288603264838457, 15.341069618239999, -11.977029608096927, -0.01600000075995922, 0.0, 0.9920000471174717, 0.0, 0.0, 0.0, 0.0, 0.0, 1.741172190911543E9, 0.0, 2025-03-05 10:56:30.911
80.0, -167.81118096178398, -158.9644476165995, 13.987225834280252, -61.03703722683713, -0.01600000075995922, 0.0, 0.9920000471174717, 0.0, 0.0, 0.0, 0.0, 0.0, 1.7411721909116178E9, 0.0, 2025-03-05 10:56:30.911
81.0, -93.10667934687808, -27.940792568959296, 10.47919967584312, 4.2840553992427886, -0.01600000075995922, 0.0, 0.9920000471174717, 0.0, 0.0, 0.0, 0.0, 0.0, 1.7411721909123669E9, 0.0, 2025-03-05 10:56:30.912
81.0, -30.04448629403487, 111.31812218111008, 12.128495556302369, 59.589695943985134, -0.01600000075995922, 0.0, 0.9920000471174717, 0.0, 0.0, 0.0, 0.0, 0.0, 1.7411721909125412E9, 0.0, 2025-03-05 10:56:30.912
82.0, -113.49661390529945, -20.88360135257244, 10.49041937571019, -16.64068485284224, -0.01600000075995922, 0.0, 0.9920000471174717, 0.0, 0.0, 0.0, 0.0, 0.0, 1.7411721909413152E9, 0.0, 2025-03-05 10:56:30.941
82.0, -169.7297496390529, -164.69771424867213, 15.778637913055718, -64.97889178013429, -0.01600000075995922, 0.0, 0.9920000471174717, 0.0, 0.0, 0.0, 0.0, 0.0, 1.741172190941419E9, 0.0, 2025-03-05 10:56:30.941
83.0, -97.60577899357304, -31.35906112845987, 9.862116183154285, 6.965563667472452, -0.01600000075995922, 0.0, 0.9920000471174717, 0.0, 0.0, 0.0, 0.0, 0.0, 1.7411721909416916E9, 0.0, 2025-03-05 10:56:30.941
83.0, -34.94001533603296, 112.92253926210105, 11.107502868399024, 63.9018005928956, -0.01600000075995922, 0.0, 0.9920000471174717, 0.0, 0.0, 0.0, 0.0, 0.0, 1.7411721909417844E9, 0.0, 2025-03-05 10:56:30.941
84.0, -115.99486707570031, -28.468118462711573, 10.370742577128112, -17.018414748366922, -0.01600000075995922, 0.0, 0.9920000471174717, 0.0, 0.0, 0.0, 0.0, 0.0, 1.74117219094223E9, 0.0, 2025-03-05 10:56:30.942
84.0, -177.63589814538136, -162.98484006896615, 10.606356274336576, -60.12450163764879, -0.01600000075995922, 0.0, 0.9920000471174717, 0.0, 0.0, 0.0, 0.0, 0.0, 1.741172190942371E9, 0.0, 2025-03-05 10:56:30.942
85.0, -88.56270090071484, -26.736544783227146, 12.809157348237932, 10.466110025998205, -0.01600000075995922, 0.0, 0.9920000471174717, 0.0, 0.0, 0.0, 0.0, 0.0, 1.7411721909720051E9, 0.0, 2025-03-05 10:56:30.972
85.0, -28.73178140958771, 104.58256236091256, 12.86899574752897, 50.08287025662139, -0.01600000075995922, 0.0, 0.9920000471174717, 0.0, 0.0, 0.0, 0.0, 0.0, 1.741172190972135E9, 0.0, 2025-03-05 10:56:30.972
86.0, -112.40830301819369, -40.12164672464132, 12.652081550098956, -16.77158135129139, -0.01600000075995922, 0.0, 0.9920000471174717, 0.0, 0.0, 0.0, 0.0, 0.0, 1.7411721909726696E9, 0.0, 2025-03-05 10:56:30.972
86.0, -168.51428215345368, -175.03105782624334, 14.017145033925772, -64.62360128434375, -0.01600000075995922, 0.0, 0.9920000471174717, 0.0, 0.0, 0.0, 0.0, 0.0, 1.741172190972804E9, 0.0, 2025-03-05 10:56:30.972
87.0, -96.04250081209466, -34.863347386941314, 14.323816830292344, 1.5389688317663968, -0.01600000075995922, 0.0, 0.9920000471174717, 0.0, 0.0, 0.0, 0.0, 0.0, 1.7411721909730396E9, 0.0, 2025-03-05 10:56:30.973
87.0, -34.3678106428124, 105.74941114708781, 9.424547888338566, 68.28496334096417, -0.01600000075995922, 0.0, 0.9920000471174717, 0.0, 0.0, 0.0, 0.0, 0.0, 1.7411721909731438E9, 0.0, 2025-03-05 10:56:30.973
88.0, -116.53715256927535, -35.596367778256536, 14.155521332286298, -15.5074951662682, -0.01600000075995922, 0.0, 0.9920000471174717, 0.0, 0.0, 0.0, 0.0, 0.0, 1.7411721910012257E9, 0.0, 2025-03-05 10:56:31.001
88.0, -171.0237550237216, -168.17208130750805, 15.191473620012403, -63.38569439901039, -0.01600000075995922, 0.0, 0.9920000471174717, 0.0, 0.0, 0.0, 0.0, 0.0, 1.7411721910015044E9, 0.0, 2025-03-05 10:56:31.001
89.0, -90.37281247926876, -32.035983020439744, 8.736406296491623, 14.250888781156391, -0.01600000075995922, 0.0, 0.9920000471174717, 0.0, 0.0, 0.0, 0.0, 0.0, 1.7411721910017865E9, 0.0, 2025-03-05 10:56:31.001
89.0, -28.78787990892306, 110.26347039360553, 7.999646005220711, 66.67680636001751, -0.01600000075995922, 0.0, 0.9920000471174717, 0.0, 0.0, 0.0, 0.0, 0.0, 1.7411721910019689E9, 0.0, 2025-03-05 10:56:31.001
90.0, -108.03635996999219, -30.23335124179721, 13.897468235343695, -8.25582915218547, -0.01600000075995922, 0.0, 1.008000047877431, 0.0, 0.0, 0.0, 0.0, 0.0, 1.7411721910029163E9, 0.0, 2025-03-05 10:56:31.002
90.0, -169.03038834733889, -163.91233525797725, 10.976606369949877, -60.52467093290761, -0.01600000075995922, 0.0, 1.008000047877431, 0.0, 0.0, 0.0, 0.0, 0.0, 1.741172191003198E9, 0.0, 2025-03-05 10:56:31.003
91.0, -88.99652929557487, -29.698545548133552, 6.604663321748376, 8.805594445671886, -0.01600000075995922, 0.0, 1.008000047877431, 0.0, 0.0, 0.0, 0.0, 0.0, 1.7411721910314853E9, 0.0, 2025-03-05 10:56:31.031
91.0, -25.14895725203678, 113.00481706112623, 12.221993055194616, 53.097229620907456, -0.01600000075995922, 0.0, 1.008000047877431, 0.0, 0.0, 0.0, 0.0, 0.0, 1.7411721910317416E9, 0.0, 2025-03-05 10:56:31.031
92.0, -110.50843384070322, -33.43844550382346, 11.354336265474558, -18.607872229535133, -0.01600000075995922, 0.0, 1.008000047877431, 0.0, 0.0, 0.0, 0.0, 0.0, 1.7411721910322397E9, 0.0, 2025-03-05 10:56:31.032
92.0, -174.87211207812652, -169.14445529598743, 11.963939958252013, -71.80794909922406, -0.01600000075995922, 0.0, 1.008000047877431, 0.0, 0.0, 0.0, 0.0, 0.0, 1.7411721910324783E9, 0.0, 2025-03-05 10:56:31.032
93.0, -95.2122430219315, -39.182931835763156, 14.46219312865287, 0.31602154625579715, -0.01600000075995922, 0.0, 1.008000047877431, 0.0, 0.0, 0.0, 0.0, 0.0, 1.741172191032786E9, 0.0, 2025-03-05 10:56:31.032
93.0, -30.81864558486268, 99.45889942161739, 14.140561732463539, 50.756052248645574, -0.01600000075995922, 0.0, 1.008000047877431, 0.0, 0.0, 0.0, 0.0, 0.0, 1.741172191032977E9, 0.0, 2025-03-05 10:56:31.032
94.0, -110.6991687384434, -36.57622156664729, 12.03873795736581, -19.352112320717424, -0.01600000075995922, 0.0, 1.008000047877431, 0.0, 0.0, 0.0, 0.0, 0.0, 1.7411721910612524E9, 0.0, 2025-03-05 10:56:31.061
94.0, -172.07840681122616, -180.41277386248112, 13.961046534590423, -65.39028077526018, -0.01600000075995922, 0.0, 1.008000047877431, 0.0, 0.0, 0.0, 0.0, 0.0, 1.7411721910614243E9, 0.0, 2025-03-05 10:56:31.061
95.0, -87.81098100962117, -38.49479024391621, 9.68634088523686, 4.927318191621453, -0.01600000075995922, 0.0, 1.008000047877431, 0.0, 0.0, 0.0, 0.0, 0.0, 1.7411721910617573E9, 0.0, 2025-03-05 10:56:31.061
95.0, -27.755667521152645, 113.03099636081606, 14.86610232386738, 61.47460552165285, -0.01600000075995922, 0.0, 1.008000047877431, 0.0, 0.0, 0.0, 0.0, 0.0, 1.7411721910618804E9, 0.0, 2025-03-05 10:56:31.061
96.0, -115.32168508367613, -28.23998456541449, 9.727479784749448, -17.396144643891603, -0.01600000075995922, 0.0, 1.008000047877431, 0.0, 0.0, 0.0, 0.0, 0.0, 1.7411721910623364E9, 0.0, 2025-03-05 10:56:31.062
96.0, -169.98032293608412, -173.00029215030372, 10.415621376596391, -71.31802220502868, -0.01600000075995922, 0.0, 1.008000047877431, 0.0, 0.0, 0.0, 0.0, 0.0, 1.741172191062565E9, 0.0, 2025-03-05 10:56:31.062
97.0, -97.3626854964532, -37.81038855202496, 13.31030394230038, -0.42447864497080445, -0.01600000075995922, 0.0, 1.008000047877431, 0.0, 0.0, 0.0, 0.0, 0.0, 1.7411721910911148E9, 0.0, 2025-03-05 10:56:31.091
97.0, -35.50848012929782, 106.22437844146043, 13.112089244648814, 64.16733348974958, -0.01600000075995922, 0.0, 1.008000047877431, 0.0, 0.0, 0.0, 0.0, 0.0, 1.7411721910913851E9, 0.0, 2025-03-05 10:56:31.091
98.0, -117.554405357223, -37.94876485038549, 6.245632926002145, -11.113112718332559, -0.01600000075995922, 0.0, 1.008000047877431, 0.0, 0.0, 0.0, 0.0, 0.0, 1.7411721910916283E9, 0.0, 2025-03-05 10:56:31.091
98.0, -174.25502858543769, -170.25146568287164, 15.112935720942914, -61.7513581183739, -0.01600000075995922, 0.0, 1.008000047877431, 0.0, 0.0, 0.0, 0.0, 0.0, 1.7411721910917373E9, 0.0, 2025-03-05 10:56:31.091
99.0, -98.60807218169793, -41.10150051303208, 15.797337412834167, 6.5392150725238025, -0.01600000075995922, 0.0, 1.008000047877431, 0.0, 0.0, 0.0, 0.0, 0.0, 1.741172191092484E9, 0.0, 2025-03-05 10:56:31.092
99.0, -24.973181954119354, 104.7919967584312, 11.825563659891486, 69.08530193148181, -0.01600000075995922, 0.0, 1.008000047877431, 0.0, 0.0, 0.0, 0.0, 0.0, 1.741172191092744E9, 0.0, 2025-03-05 10:56:31.092
100.0, -110.39623684203252, -42.5750210955739, 13.168187743984163, -16.008641760330647, -0.01600000075995922, 0.0, 1.008000047877431, 0.0, 0.0, 0.0, 0.0, 0.0, 1.7411721911213837E9, 0.0, 2025-03-05 10:56:31.121
100.0, -171.89141181344166, -177.33483619894832, 14.278938030824065, -61.571842920500785, -0.01600000075995922, 0.0, 1.008000047877431, 0.0, 0.0, 0.0, 0.0, 0.0, 1.7411721911215165E9, 0.0, 2025-03-05 10:56:31.121
0.0, -91.20120031945407, -36.189141921233386, 13.989095784258097, 11.019615219440311, -0.01600000075995922, 0.0, 1.008000047877431, 0.0, 0.0, 0.0, 0.0, 0.0, 1.741172191121612E9, 0.0, 2025-03-05 10:56:31.121
1.0, -29.709765248000622, 108.22335496777669, 10.772781822364777, 58.336829458829015, -0.01600000075995922, 0.0, 1.008000047877431, 0.0, 0.0, 0.0, 0.0, 0.0, 1.741172191122207E9, 0.0, 2025-03-05 10:56:31.122
1.0, -116.13885322399437, -32.961608259472996, 10.331473627593368, -15.320500168483704, -0.01600000075995922, 0.0, 1.008000047877431, 0.0, 0.0, 0.0, 0.0, 0.0, 1.7411721911224017E9, 0.0, 2025-03-05 10:56:31.122
2.0, -166.99401282146573, -171.97368961246684, 12.601592900697142, -79.99459010222927, -0.01600000075995922, 0.0, 1.008000047877431, 0.0, 0.0, 0.0, 0.0, 0.0, 1.7411721911230094E9, 0.0, 2025-03-05 10:56:31.123
2.0, -85.23979979008436, -34.184555544983596, 14.078853383194655, 4.949757591355592, -0.01600000075995922, 0.0, 1.008000047877431, 0.0, 0.0, 0.0, 0.0, 0.0, 1.741172191123109E9, 0.0, 2025-03-05 10:56:31.123
3.0, -22.14020773768425, 122.24050000170246, 8.906571744475514, 48.02592528099194, -0.01600000075995922, 0.0, 1.008000047877431, 0.0, 0.0, 0.0, 0.0, 0.0, 1.7411721911516623E9, 0.0, 2025-03-05 10:56:31.151
3.0, -116.93545191455632, -2.4365448211319745, 16.090919559355825, -23.286487074103206, -0.01600000075995922, 0.0, 1.008000047877431, 0.0, 0.0, 0.0, 0.0, 0.0, 1.7411721911517847E9, 0.0, 2025-03-05 10:56:31.151
4.0, -193.3154287096113, -119.02418603980914, 8.65973834739998, -69.47051162691787, -0.01600000075995922, 0.0, 1.008000047877431, 0.0, 0.0, 0.0, 0.0, 0.0, 1.7411721911518815E9, 0.0, 2025-03-05 10:56:31.151
4.0, -124.00386283081025, 43.104216939304024, 8.899091944564134, -0.6713120420463383, -0.01600000075995922, 0.0, 1.008000047877431, 0.0, 0.0, 0.0, 0.0, 0.0, 1.741172191151998E9, 0.0, 2025-03-05 10:56:31.151
5.0, -73.80692562554032, 216.5271177846007, 11.352466315496713, 57.27469787141308, -0.01600000075995922, 0.0, 1.008000047877431, 0.0, 0.0, 0.0, 0.0, 0.0, 1.741172191181193E9, 0.0, 2025-03-05 10:56:31.181
5.0, -170.3823621813208, 112.71123491460457, 12.384678703267127, -15.986202360596508, -0.01600000075995922, 0.0, 1.008000047877431, 0.0, 0.0, 0.0, 0.0, 0.0, 1.7411721911814616E9, 0.0, 2025-03-05 10:56:31.181
6.0, -251.82990341633558, 18.862185426522046, 16.012381660286337, -65.74931117100641, -0.01600000075995922, 0.0, 1.008000047877431, 0.0, 0.0, 0.0, 0.0, 0.0, 1.7411721911818025E9, 0.0, 2025-03-05 10:56:31.181
6.0, -194.66927249357104, 178.89624443044886, 13.07656019506976, 15.159684470389038, -0.01600000075995922, 0.0, 1.008000047877431, 0.0, 0.0, 0.0, 0.0, 0.0, 1.7411721911819232E9, 0.0, 2025-03-05 10:56:31.181
7.0, -141.506594623439, 333.63834499707446, 10.798961122054607, 62.678853307385, -0.01600000075995922, 0.0, 1.008000047877431, 0.0, 0.0, 0.0, 0.0, 0.0, 1.7411721911821713E9, 0.0, 2025-03-05 10:56:31.182
7.0, -229.2932662833482, 200.8905960698612, 13.125178894493729, -11.999469007831067, -0.01600000075995922, 0.0, 1.008000047877431, 0.0, 0.0, 0.0, 0.0, 0.0, 1.7411721911822777E9, 0.0, 2025-03-05 10:56:31.182
8.0, -290.5490876575932, 60.412473934236914, 11.07945361873135, -58.66594065492973, -0.01600000075995922, 0.0, 1.008000047877431, 0.0, 0.0, 0.0, 0.0, 0.0, 1.7411721911828856E9, 0.0, 2025-03-05 10:56:31.182
8.0, -204.7258634744212, 183.11859148042277, 11.023355119396001, 3.3677799100987613, -0.01600000075995922, 0.0, 1.008000047877431, 0.0, 0.0, 0.0, 0.0, 0.0, 1.7411721911829753E9, 0.0, 2025-03-05 10:56:31.182
9.0, -130.40657155495137, 307.122454311233, 10.503509025555104, 71.94632539758459, -0.01600000075995922, 0.0, 1.008000047877431, 0.0, 0.0, 0.0, 0.0, 0.0, 1.7411721912112093E9, 0.0, 2025-03-05 10:56:31.211
9.0, -201.73768340982497, 140.0087646911852, 13.09151979489252, -13.304694092366844, -0.01600000075995922, 0.0, 1.008000047877431, 0.0, 0.0, 0.0, 0.0, 0.0, 1.7411721912113833E9, 0.0, 2025-03-05 10:56:31.211
10.0, -250.35638283379376, -27.99128121836111, 12.65769140003249, -68.67017303640023, -0.01600000075995922, 0.0, 1.008000047877431, 0.0, 0.0, 0.0, 0.0, 0.0, 1.7411721912116742E9, 0.0, 2025-03-05 10:56:31.211
10.0, -153.16760268528014, 82.71349737001583, 11.962070008274168, -5.559361284133047, -0.01600000075995922, 0.0, 1.008000047877431, 0.0, 0.0, 0.0, 0.0, 0.0, 1.7411721912118368E9, 0.0, 2025-03-05 10:56:31.211
11.0, -81.13712953869253, 197.36013051168993, 14.70715657575056, 56.728672477882355, -0.01600000075995922, 0.0, 1.008000047877431, 0.0, 0.0, 0.0, 0.0, 0.0, 1.7411721912411685E9, 0.0, 2025-03-05 10:56:31.241
11.0, -153.8557442771271, 40.10107727488503, 15.997422060463578, -27.894043819513172, -0.01600000075995922, 0.0, 1.008000047877431, 0.0, 0.0, 0.0, 0.0, 0.0, 1.7411721912413E9, 0.0, 2025-03-05 10:56:31.241
12.0, -206.38637905474752, -117.52822605753317, 12.003208907786757, -77.29064243426546, -0.01600000075995922, 0.0, 1.008000047877431, 0.0, 0.0, 0.0, 0.0, 0.0, 1.741172191241511E9, 0.0, 2025-03-05 10:56:31.241
12.0, -112.37651386857033, 2.930211615283042, 9.695690635126084, -5.43968448555097, -0.01600000075995922, 0.0, 1.008000047877431, 0.0, 0.0, 0.0, 0.0, 0.0, 1.7411721912416112E9, 0.0, 2025-03-05 10:56:31.241
13.0, -52.728849475272, 136.26138493558392, 10.466110025998205, 53.18324731988832, -0.01600000075995922, 0.0, 1.008000047877431, 0.0, 0.0, 0.0, 0.0, 0.0, 1.7411721912421865E9, 0.0, 2025-03-05 10:56:31.242
13.0, -126.09072700608522, -22.583385882433504, 12.71004999941215, -29.850011496338993, -0.01600000075995922, 0.0, 1.008000047877431, 0.0, 0.0, 0.0, 0.0, 0.0, 1.741172191242278E9, 0.0, 2025-03-05 10:56:31.242
14.0, -174.6757673304528, -166.8724660729058, 9.87894573295489, -87.77358201006427, -0.01600000075995922, 0.0, 1.008000047877431, 0.0, 0.0, 0.0, 0.0, 0.0, 1.7411721912428753E9, 0.0, 2025-03-05 10:56:31.242
14.0, -90.49809912778437, -35.860030725132674, 10.922377820592374, -5.095613689627498, -0.01600000075995922, 0.0, 1.008000047877431, 0.0, 0.0, 0.0, 0.0, 0.0, 1.741172191243144E9, 0.0, 2025-03-05 10:56:31.243
15.0, -27.043216579593718, 92.30260085640475, 12.840946497861296, 53.59463631501421, -0.01600000075995922, 0.0, 1.008000047877431, 0.0, 0.0, 0.0, 0.0, 0.0, 1.7411721912713988E9, 0.0, 2025-03-05 10:56:31.271
15.0, -107.1630933303386, -62.020630915183574, 11.599299712572247, -21.1023854999803, -0.01600000075995922, 0.0, 1.008000047877431, 0.0, 0.0, 0.0, 0.0, 0.0, 1.7411721912715268E9, 0.0, 2025-03-05 10:56:31.271
16.0, -162.61832987330854, -199.16650219028816, 11.277668316382915, -72.82146198721603, -0.01600000075995922, 0.0, 1.008000047877431, 0.0, 0.0, 0.0, 0.0, 0.0, 1.741172191271967E9, 0.0, 2025-03-05 10:56:31.271
16.0, -73.50399372912943, -59.518637844827026, 12.321100404020399, 3.0012697144411504, -0.01600000075995922, 0.0, 1.008000047877431, 0.0, 0.0, 0.0, 0.0, 0.0, 1.7411721912721E9, 0.0, 2025-03-05 10:56:31.272
17.0, -10.931727570481598, 75.02800296107307, 14.108772582840174, 62.66015380760655, -0.01600000075995922, 0.0, 1.008000047877431, 0.0, 0.0, 0.0, 0.0, 0.0, 1.7411721913019693E9, 0.0, 2025-03-05 10:56:31.301
17.0, -93.64335499051958, -66.85258165793493, 11.210350117180496, -19.48674871912226, -0.01600000075995922, 0.0, 1.008000047877431, 0.0, 0.0, 0.0, 0.0, 0.0, 1.741172191302101E9, 0.0, 2025-03-05 10:56:31.302
18.0, -153.30597898364067, -197.43118861084804, 10.985956119839102, -65.13970747822896, -0.01600000075995922, 0.0, 1.008000047877431, 0.0, 0.0, 0.0, 0.0, 0.0, 1.741172191302235E9, 0.0, 2025-03-05 10:56:31.302
18.0, -74.74938041437417, -75.24865705845878, 13.992835684213787, -2.6272797188721597, -0.01600000075995922, 0.0, 1.008000047877431, 0.0, 0.0, 0.0, 0.0, 0.0, 1.7411721913023164E9, 0.0, 2025-03-05 10:56:31.302
19.0, -6.361569824628532, 72.99723728513345, 10.735382822807878, 68.78237003507093, -0.01600000075995922, 0.0, 1.008000047877431, 0.0, 0.0, 0.0, 0.0, 0.0, 1.7411721913024836E9, 0.0, 2025-03-05 10:56:31.302
19.0, -90.63273552618921, -58.11617536144331, 12.71004999941215, -7.03288186667487, -0.01600000075995922, 0.0, 1.008000047877431, 0.0, 0.0, 0.0, 0.0, 0.0, 1.7411721913026185E9, 0.0, 2025-03-05 10:56:31.302
20.0, -149.82787202484906, -202.16216205479577, 12.728749499190599, -67.58186214929447, -0.01600000075995922, 0.0, 0.9920000471174717, 0.0, 0.0, 0.0, 0.0, 0.0, 1.741172191302884E9, 0.0, 2025-03-05 10:56:31.302
20.0, -67.89414379559457, -62.47689870977774, 17.54948054207489, 12.571673701051623, -0.01600000075995922, 0.0, 0.9920000471174717, 0.0, 0.0, 0.0, 0.0, 0.0, 1.7411721913029776E9, 0.0, 2025-03-05 10:56:31.302
21.0, -5.744486331939697, 89.5799536886625, 8.154851853381842, 69.80336272297427, -0.01600000075995922, 0.0, 0.9920000471174717, 0.0, 0.0, 0.0, 0.0, 0.0, 1.7411721913319E9, 0.0, 2025-03-05 10:56:31.331
21.0, -88.86750274710357, -57.570149967912585, 12.956883396487683, -6.183924576733261, -0.01600000075995922, 0.0, 0.9920000471174717, 0.0, 0.0, 0.0, 0.0, 0.0, 1.7411721913320997E9, 0.0, 2025-03-05 10:56:31.332
22.0, -149.78299322538078, -197.5546053093858, 11.88727200916037, -63.84944199351594, -0.01600000075995922, 0.0, 0.9920000471174717, 0.0, 0.0, 0.0, 0.0, 0.0, 1.7411721913323371E9, 0.0, 2025-03-05 10:56:31.332
22.0, -71.50688715279102, -54.754005301278085, 13.10273949475959, 18.26006153365597, -0.01600000075995922, 0.0, 0.9920000471174717, 0.0, 0.0, 0.0, 0.0, 0.0, 1.7411721913325007E9, 0.0, 2025-03-05 10:56:31.332
23.0, -7.865009606815875, 81.80844158073887, 12.758668698836118, 70.43914571544155, -0.01600000075995922, 0.0, 0.9920000471174717, 0.0, 0.0, 0.0, 0.0, 0.0, 1.741172191361275E9, 0.0, 2025-03-05 10:56:31.361
23.0, -85.12386289145797, -55.595482791308314, 14.965209672693163, -6.920684868004173, -0.01600000075995922, 0.0, 0.9920000471174717, 0.0, 0.0, 0.0, 0.0, 0.0, 1.7411721913614032E9, 0.0, 2025-03-05 10:56:31.361
24.0, -149.6259174272418, -205.06806432036683, 7.758422458078712, -57.32705647079274, -0.01600000075995922, 0.0, 0.9920000471174717, 0.0, 0.0, 0.0, 0.0, 0.0, 1.741172191361596E9, 0.0, 2025-03-05 10:56:31.361
24.0, -70.35499796643853, -73.33756818110123, 8.764455546159297, 8.427864550147206, -0.01600000075995922, 0.0, 0.9920000471174717, 0.0, 0.0, 0.0, 0.0, 0.0, 1.7411721913616824E9, 0.0, 2025-03-05 10:56:31.361
25.0, -5.6135898334905505, 71.16842620680109, 12.429557502735406, 57.40559436986223, -0.01600000075995922, 0.0, 0.9920000471174717, 0.0, 0.0, 0.0, 0.0, 0.0, 1.741172191362306E9, 0.0, 2025-03-05 10:56:31.362
25.0, -92.64480170235038, -68.67391293635592, 14.363085779827088, -14.194790281821042, -0.01600000075995922, 0.0, 0.9920000471174717, 0.0, 0.0, 0.0, 0.0, 0.0, 1.7411721913624327E9, 0.0, 2025-03-05 10:56:31.362
26.0, -148.8068793369457, -207.03525169705972, 12.130365506280214, -65.87646776949987, -0.01600000075995922, 0.0, 0.9920000471174717, 0.0, 0.0, 0.0, 0.0, 0.0, 1.74117219136291E9, 0.0, 2025-03-05 10:56:31.362
26.0, -71.95567514747381, -72.80276248743758, 14.228449381422251, 6.127826077397913, -0.01600000075995922, 0.0, 0.9920000471174717, 0.0, 0.0, 0.0, 0.0, 0.0, 1.7411721913630865E9, 0.0, 2025-03-05 10:56:31.363
27.0, -4.394382447935641, 66.09338196692988, 12.074267006944865, 57.85438236454502, -0.01600000075995922, 0.0, 0.9920000471174717, 0.0, 0.0, 0.0, 0.0, 0.0, 1.741172191391144E9, 0.0, 2025-03-05 10:56:31.391
27.0, -91.79584441240877, -77.07372823683545, 13.44681029068306, -18.510634830687195, -0.01600000075995922, 0.0, 0.9920000471174717, 0.0, 0.0, 0.0, 0.0, 0.0, 1.7411721913913348E9, 0.0, 2025-03-05 10:56:31.391
28.0, -152.80109248962253, -221.57972262473777, 10.148218529764563, -71.00761050870642, -0.01600000075995922, 0.0, 0.9920000471174717, 0.0, 0.0, 0.0, 0.0, 0.0, 1.7411721913915992E9, 0.0, 2025-03-05 10:56:31.391
28.0, -73.16366283316165, -81.38583288574591, 11.980769508052617, 6.438237773720175, -0.01600000075995922, 0.0, 0.9920000471174717, 0.0, 0.0, 0.0, 0.0, 0.0, 1.7411721913918138E9, 0.0, 2025-03-05 10:56:31.391
29.0, -4.925448241643608, 62.44323961017653, 10.398791826795787, 65.33044237596914, -0.01600000075995922, 0.0, 0.9920000471174717, 0.0, 0.0, 0.0, 0.0, 0.0, 1.7411721914220395E9, 0.0, 2025-03-05 10:56:31.422
29.0, -92.86545579973608, -69.24985752953216, 12.134105406235904, -20.68725660489872, -0.01600000075995922, 0.0, 0.9920000471174717, 0.0, 0.0, 0.0, 0.0, 0.0, 1.7411721914221478E9, 0.0, 2025-03-05 10:56:31.422
30.0, -154.02777967508882, -204.97456682147458, 13.207456693518907, -63.09398220246658, -0.01600000075995922, 0.0, 0.9920000471174717, 0.0, 0.0, 0.0, 0.0, 0.0, 1.7411721914223893E9, 0.0, 2025-03-05 10:56:31.422
30.0, -73.72838772647083, -65.35288177570328, 15.92636396130547, 6.0156290787272155, -0.01600000075995922, 0.0, 0.9920000471174717, 0.0, 0.0, 0.0, 0.0, 0.0, 1.7411721914224837E9, 0.0, 2025-03-05 10:56:31.422
31.0, -10.595136574469507, 74.11172747192904, 9.389018838759512, 67.03209685580805, -0.01600000075995922, 0.0, 0.9920000471174717, 0.0, 0.0, 0.0, 0.0, 0.0, 1.7411721914227183E9, 0.0, 2025-03-05 10:56:31.422
31.0, -95.7863176651299, -66.81892255833372, 8.27826855191961, -14.449103478807956, -0.01600000075995922, 0.0, 0.9920000471174717, 0.0, 0.0, 0.0, 0.0, 0.0, 1.7411721914228492E9, 0.0, 2025-03-05 10:56:31.422
32.0, -155.39658305887133, -203.62446293747053, 12.111666006501764, -63.07528270268813, -0.01600000075995922, 0.0, 0.9920000471174717, 0.0, 0.0, 0.0, 0.0, 0.0, 1.7411721914229407E9, 0.0, 2025-03-05 10:56:31.422
32.0, -77.97691407613456, -61.84485561726615, 12.717529799323529, 12.336060003843158, -0.01600000075995922, 0.0, 0.9920000471174717, 0.0, 0.0, 0.0, 0.0, 0.0, 1.7411721914230459E9, 0.0, 2025-03-05 10:56:31.423
33.0, -12.184594055637717, 85.26410913979635, 14.239669081289321, 65.11352817853913, -0.01600000075995922, 0.0, 0.9920000471174717, 0.0, 0.0, 0.0, 0.0, 0.0, 1.7411721914512837E9, 0.0, 2025-03-05 10:56:31.451
33.0, -100.06102331448346, -59.971165739465505, 14.516421678010374, -15.436437067110091, -0.01600000075995922, 0.0, 0.9920000471174717, 0.0, 0.0, 0.0, 0.0, 0.0, 1.7411721914515405E9, 0.0, 2025-03-05 10:56:31.451
34.0, -155.73317405488342, -196.37653682334349, 12.852166197728366, -64.49644468585029, -0.01600000075995922, 0.0, 0.9920000471174717, 0.0, 0.0, 0.0, 0.0, 0.0, 1.7411721914516993E9, 0.0, 2025-03-05 10:56:31.451
34.0, -74.72320111468434, -60.98467862745747, 11.704016911331564, 11.969549808185548, -0.01600000075995922, 0.0, 0.9920000471174717, 0.0, 0.0, 0.0, 0.0, 0.0, 1.7411721914518743E9, 0.0, 2025-03-05 10:56:31.451
35.0, -8.960800293833017, 91.19933036947623, 9.179584441240877, 72.51853009080514, -0.01600000075995922, 0.0, 0.9920000471174717, 0.0, 0.0, 0.0, 0.0, 0.0, 1.7411721914814537E9, 0.0, 2025-03-05 10:56:31.481
35.0, -94.57459007948637, -51.17866094363853, 10.309034227859229, -5.967010379303247, -0.01600000075995922, 0.0, 0.9920000471174717, 0.0, 0.0, 0.0, 0.0, 0.0, 1.7411721914815683E9, 0.0, 2025-03-05 10:56:31.481
36.0, -161.2607461893931, -193.01062686322257, 13.727302787359804, -65.18084637774155, -0.01600000075995922, 0.0, 0.9920000471174717, 0.0, 0.0, 0.0, 0.0, 0.0, 1.7411721914817061E9, 0.0, 2025-03-05 10:56:31.481
36.0, -79.41303565911949, -56.0068717864342, 14.763255075085908, 0.8321277401410043, -0.01600000075995922, 0.0, 0.9920000471174717, 0.0, 0.0, 0.0, 0.0, 0.0, 1.741172191481785E9, 0.0, 2025-03-05 10:56:31.481
37.0, -12.180854155682027, 84.22441695211455, 10.974736419972032, 56.298583982978016, -0.01600000075995922, 0.0, 0.9920000471174717, 0.0, 0.0, 0.0, 0.0, 0.0, 1.7411721914823048E9, 0.0, 2025-03-05 10:56:31.482
37.0, -97.6001691436395, -55.973212686832994, 12.904524797108024, -16.947356649208814, -0.01600000075995922, 0.0, 0.9920000471174717, 0.0, 0.0, 0.0, 0.0, 0.0, 1.7411721914824684E9, 0.0, 2025-03-05 10:56:31.482
38.0, -159.46559421066195, -193.8895033528097, 9.355359739158303, -74.8335281633772, -0.01600000075995922, 0.0, 0.9920000471174717, 0.0, 0.0, 0.0, 0.0, 0.0, 1.7411721914828703E9, 0.0, 2025-03-05 10:56:31.482
38.0, -79.76458625495434, -63.221138800960034, 13.214936493430287, -5.622939583379775, -0.01600000075995922, 0.0, 0.9920000471174717, 0.0, 0.0, 0.0, 0.0, 0.0, 1.7411721914829752E9, 0.0, 2025-03-05 10:56:31.482
39.0, -15.632781814783812, 90.09231998259202, 8.136152353603393, 55.958253087010235, -0.01600000075995922, 0.0, 0.9920000471174717, 0.0, 0.0, 0.0, 0.0, 0.0, 1.741172191511203E9, 0.0, 2025-03-05 10:56:31.511
39.0, -103.59522877261043, -52.95511342259124, 6.786048469599336, -20.133751411456615, -0.01600000075995922, 0.0, 0.9920000471174717, 0.0, 0.0, 0.0, 0.0, 0.0, 1.7411721915113077E9, 0.0, 2025-03-05 10:56:31.511
40.0, -156.54473234526813, -188.60876461537555, 14.6547979763709, -79.88239310355857, -0.01600000075995922, 0.0, 0.9920000471174717, 0.0, 0.0, 0.0, 0.0, 0.0, 1.741172191511658E9, 0.0, 2025-03-05 10:56:31.511
40.0, -73.60497102793306, -52.367949129547924, 11.88353210920468, 3.2481031115166843, -0.01600000075995922, 0.0, 0.9920000471174717, 0.0, 0.0, 0.0, 0.0, 0.0, 1.7411721915117488E9, 0.0, 2025-03-05 10:56:31.511
41.0, -15.999292010441422, 91.7640552627854, 15.238222369458526, 63.217398901004344, -0.01600000075995922, 0.0, 0.9920000471174717, 0.0, 0.0, 0.0, 0.0, 0.0, 1.7411721915413363E9, 0.0, 2025-03-05 10:56:31.541
41.0, -101.41112719848752, -42.685348144266754, 11.47214311407879, -9.964963431935757, -0.01600000075995922, 0.0, 0.9920000471174717, 0.0, 0.0, 0.0, 0.0, 0.0, 1.7411721915415988E9, 0.0, 2025-03-05 10:56:31.541
42.0, -169.05469769705087, -181.0728662046604, 12.481916102115065, -60.03100413875654, 0.0, 0.0, 0.9920000471174717, 0.0, 0.0, 0.0, 0.0, 0.0, 1.7411721915715587E9, 0.0, 2025-03-05 10:56:31.571
42.0, -80.80427844263613, -51.922901034820825, 15.320500168483704, 10.084640230517834, 0.0, 0.0, 0.9920000471174717, 0.0, 0.0, 0.0, 0.0, 0.0, 1.7411721915716703E9, 0.0, 2025-03-05 10:56:31.571
43.0, -14.024624833837152, 98.44351658364758, 12.216383205261081, 62.54047700902447, 0.0, 0.0, 0.9920000471174717, 0.0, 0.0, 0.0, 0.0, 0.0, 1.7411721915717657E9, 0.0, 2025-03-05 10:56:31.571
43.0, -101.70283939503133, -50.07539045671001, 10.447410526219755, -17.53826084220782, 0.0, 0.0, 0.9920000471174717, 0.0, 0.0, 0.0, 0.0, 0.0, 1.7411721915718412E9, 0.0, 2025-03-05 10:56:31.571
44.0, -163.23915326595306, -192.329965071287, 10.585786824580282, -68.4607386388816, 0.0, 0.0, 0.9920000471174717, 0.0, 0.0, 0.0, 0.0, 0.0, 1.741172191572163E9, 0.0, 2025-03-05 10:56:31.572
44.0, -83.67278170865029, -51.141261944081634, 8.323147351387888, 6.606533271726221, 0.0, 0.0, 0.9920000471174717, 0.0, 0.0, 0.0, 0.0, 0.0, 1.7411721915722544E9, 0.0, 2025-03-05 10:56:31.572
45.0, -14.443493628874421, 95.21972282184288, 9.246902640443295, 65.30052317632362, 0.0, 0.0, 0.9920000471174717, 0.0, 0.0, 0.0, 0.0, 0.0, 1.741172191573093E9, 0.0, 2025-03-05 10:56:31.573
45.0, -99.5299575207755, -40.8527971659787, 11.88727200916037, -13.431850690860301, 0.0, 0.0, 0.9920000471174717, 0.0, 0.0, 0.0, 0.0, 0.0, 1.7411721915731823E9, 0.0, 2025-03-05 10:56:31.573
46.0, -161.94888778124005, -180.49692161148414, 10.039761431049556, -64.14489409001544, 0.0, 0.0, 0.9920000471174717, 0.0, 0.0, 0.0, 0.0, 0.0, 1.7411721915735416E9, 0.0, 2025-03-05 10:56:31.573
46.0, -81.28298563696444, -42.43851474719122, 9.931304332334548, 2.1111735249869525, 0.0, 0.0, 0.9920000471174717, 0.0, 0.0, 0.0, 0.0, 0.0, 1.7411721915736299E9, 0.0, 2025-03-05 10:56:31.573
47.0, -24.1971527133137, 97.8451325907372, 9.06364754261449, 62.98552510375157, 0.0, 0.0, 0.9920000471174717, 0.0, 0.0, 0.0, 0.0, 0.0, 1.741172191574232E9, 0.0, 2025-03-05 10:56:31.574
47.0, -105.32306255213916, -45.123762915376574, 13.237375893164426, -15.705709863919765, 0.0, 0.0, 0.9920000471174717, 0.0, 0.0, 0.0, 0.0, 0.0, 1.741172191574361E9, 0.0, 2025-03-05 10:56:31.574
48.0, -162.91752186976373, -183.08119248086587, 20.459122707601637, -79.98711030231789, 0.0, 0.0, 0.9920000471174717, 0.0, 0.0, 0.0, 0.0, 0.0, 1.741172191601174E9, 0.0, 2025-03-05 10:56:31.601
48.0, -85.54273168649524, -52.1173758325167, 6.468156973365694, -6.6588918711058795, 0.0, 0.0, 0.9920000471174717, 0.0, 0.0, 0.0, 0.0, 0.0, 1.7411721916012864E9, 0.0, 2025-03-05 10:56:31.601
49.0, -20.404894158244133, 97.72171589219943, 11.404824914876372, 64.3805077872239, 0.0, 0.0, 0.9920000471174717, 0.0, 0.0, 0.0, 0.0, 0.0, 1.7411721916016927E9, 0.0, 2025-03-05 10:56:31.601
49.0, -106.91625993326306, -37.95437470031902, 13.760961886961013, -14.29202768066898, 0.0, 0.0, 0.9920000471174717, 0.0, 0.0, 0.0, 0.0, 0.0, 1.741172191601828E9, 0.0, 2025-03-05 10:56:31.601
50.0, -166.1861944310367, -179.28145412588492, 9.665771435480565, -73.24407068220899, 0.0, 0.0, 0.9920000471174717, 0.0, 0.0, 0.0, 0.0, 0.0, 1.7411721916311684E9, 0.0, 2025-03-05 10:56:31.631
50.0, -85.42305488791317, -51.84062323579565, 11.300107716117054, -6.333520574960858, 0.0, 0.0, 0.9920000471174717, 0.0, 0.0, 0.0, 0.0, 0.0, 1.7411721916313424E9, 0.0, 2025-03-05 10:56:31.631
51.0, -22.854528629221022, 95.3244400206022, 12.164024605881423, 62.387141110841185, 0.0, 0.0, 0.9920000471174717, 0.0, 0.0, 0.0, 0.0, 0.0, 1.7411721916316433E9, 0.0, 2025-03-05 10:56:31.631
51.0, -98.57254313211888, -46.268172301817685, 11.588080012705177, -15.600992665160447, 0.0, 0.0, 0.9920000471174717, 0.0, 0.0, 0.0, 0.0, 0.0, 1.7411721916317244E9, 0.0, 2025-03-05 10:56:31.631
52.0, -162.30791817698628, -190.0000073988922, 15.286841068882495, -71.2020853064023, -0.01600000075995922, 0.0, 0.9920000471174717, 0.0, 0.0, 0.0, 0.0, 0.0, 1.7411721916611147E9, 0.0, 2025-03-05 10:56:31.661
52.0, -82.53959202207625, -55.176613996271044, 14.138691782485694, -2.455244320910424, -0.01600000075995922, 0.0, 0.9920000471174717, 0.0, 0.0, 0.0, 0.0, 0.0, 1.7411721916613548E9, 0.0, 2025-03-05 10:56:31.661
53.0, -13.949826834723353, 94.35580593207851, 9.258122340310365, 53.25056551909074, -0.01600000075995922, 0.0, 0.9920000471174717, 0.0, 0.0, 0.0, 0.0, 0.0, 1.7411721916615086E9, 0.0, 2025-03-05 10:56:31.661
53.0, -102.94448618032038, -41.2978452607058, 8.62233934784308, -25.429449748713523, -0.01600000075995922, 0.0, 0.9920000471174717, 0.0, 0.0, 0.0, 0.0, 0.0, 1.7411721916616485E9, 0.0, 2025-03-05 10:56:31.661
54.0, -164.3050247533247, -182.22849529096857, 10.727903022896498, -75.02800296107307, -0.01600000075995922, 0.0, 0.9920000471174717, 0.0, 0.0, 0.0, 0.0, 0.0, 1.7411721916622725E9, 0.0, 2025-03-05 10:56:31.662
54.0, -93.7480721892789, -44.54033852228895, 15.769288163166493, -9.205763740930706, -0.01600000075995922, 0.0, 0.9920000471174717, 0.0, 0.0, 0.0, 0.0, 0.0, 1.7411721916623695E9, 0.0, 2025-03-05 10:56:31.662
55.0, -21.175313549116254, 109.33784515457228, 10.997175819706172, 57.80950356507674, -0.01600000075995922, 0.0, 0.9920000471174717, 0.0, 0.0, 0.0, 0.0, 0.0, 1.7411721916912892E9, 0.0, 2025-03-05 10:56:31.691
55.0, -100.25175821222365, -34.618383939843625, 10.907418220769614, -18.985602125059813, -0.01600000075995922, 0.0, 0.9920000471174717, 0.0, 0.0, 0.0, 0.0, 0.0, 1.7411721916915448E9, 0.0, 2025-03-05 10:56:31.691
56.0, -162.41637527570128, -180.2164291148074, 12.063047307077795, -80.82858779234812, -0.01600000075995922, 0.0, 0.9920000471174717, 0.0, 0.0, 0.0, 0.0, 0.0, 1.74117219169164E9, 0.0, 2025-03-05 10:56:31.691
56.0, -80.73322034347802, -44.79465171927586, 11.991989207919687, -3.3715198100544512, -0.01600000075995922, 0.0, 0.9920000471174717, 0.0, 0.0, 0.0, 0.0, 0.0, 1.7411721916917157E9, 0.0, 2025-03-05 10:56:31.691
57.0, -18.998691774904728, 104.41987671284005, 12.769888398703188, 59.25684484792873, -0.01600000075995922, 0.0, 0.9920000471174717, 0.0, 0.0, 0.0, 0.0, 0.0, 1.7411721916921954E9, 0.0, 2025-03-05 10:56:31.692
57.0, -101.09697560220957, -39.24464018503204, 8.712096946779639, -17.736475539859384, -0.01600000075995922, 0.0, 0.9920000471174717, 0.0, 0.0, 0.0, 0.0, 0.0, 1.741172191692292E9, 0.0, 2025-03-05 10:56:31.692
58.0, -164.45836065150797, -178.09216593997553, 11.236529416870326, -82.90049236780033, -0.01600000075995922, 0.0, 0.9920000471174717, 0.0, 0.0, 0.0, 0.0, 0.0, 1.7411721916930108E9, 0.0, 2025-03-05 10:56:31.693
58.0, -83.84481710661203, -40.38530967151746, 14.68471717601642, 1.2659561350010335, -0.01600000075995922, 0.0, 0.9920000471174717, 0.0, 0.0, 0.0, 0.0, 0.0, 1.7411721916931915E9, 0.0, 2025-03-05 10:56:31.693
59.0, -24.387887611053884, 99.67020376911387, 10.402531726751477, 64.32066938793287, -0.01600000075995922, 0.0, 0.9920000471174717, 0.0, 0.0, 0.0, 0.0, 0.0, 1.741172191693801E9, 0.0, 2025-03-05 10:56:31.693
59.0, -98.70343963056803, -38.223647497128695, 12.388418603222817, -17.586879541631788, -0.01600000075995922, 0.0, 0.9920000471174717, 0.0, 0.0, 0.0, 0.0, 0.0, 1.7411721916939774E9, 0.0, 2025-03-05 10:56:31.693
60.0, -164.58551725000143, -175.57147336984053, 11.90223160898313, -72.00990369683132, -0.01600000075995922, 0.0, 0.9920000471174717, 0.0, 0.0, 0.0, 0.0, 0.0, 1.7411721917213745E9, 0.0, 2025-03-05 10:56:31.721
60.0, -89.27515184227377, -46.372889500577, 13.315913792233914, -5.103093489538878, -0.01600000075995922, 0.0, 0.9920000471174717, 0.0, 0.0, 0.0, 0.0, 0.0, 1.7411721917215807E9, 0.0, 2025-03-05 10:56:31.721
61.0, -21.149134249426425, 98.42481708386913, 13.764701786916703, 54.0808233092539, -0.01600000075995922, 0.0, 0.9920000471174717, 0.0, 0.0, 0.0, 0.0, 0.0, 1.7411721917217329E9, 0.0, 2025-03-05 10:56:31.721
61.0, -103.98791826795787, -39.12496338644996, 11.973289708141237, -17.822493238840252, -0.01600000075995922, 0.0, 0.9920000471174717, 0.0, 0.0, 0.0, 0.0, 0.0, 1.7411721917218812E9, 0.0, 2025-03-05 10:56:31.721
62.0, -162.34905707649887, -173.88851838978007, 11.782554810401052, -71.4601384033449, 0.0, 0.0, 0.9920000471174717, 0.0, 0.0, 0.0, 0.0, 0.0, 1.7411721917522123E9, 0.0, 2025-03-05 10:56:31.752
62.0, -85.68484788481146, -36.12182372203097, 13.024201595690101, 3.6071335072629154, 0.0, 0.0, 0.9920000471174717, 0.0, 0.0, 0.0, 0.0, 0.0, 1.7411721917523992E9, 0.0, 2025-03-05 10:56:31.752
63.0, -19.028610974550247, 102.63594443397596, 14.602439376991242, 51.65362823801115, 0.0, 0.0, 0.9920000471174717, 0.0, 0.0, 0.0, 0.0, 0.0, 1.7411721917528234E9, 0.0, 2025-03-05 10:56:31.752
63.0, -105.71201214753091, -31.1440168810077, 10.346433227416128, -16.72296265186742, 0.0, 0.0, 0.9920000471174717, 0.0, 0.0, 0.0, 0.0, 0.0, 1.741172191752924E9, 0.0, 2025-03-05 10:56:31.752
64.0, -172.5963829550892, -173.5818465934135, 14.65853787632659, -69.54530962603167, 0.0, 0.0, 0.9920000471174717, 0.0, 0.0, 0.0, 0.0, 0.0, 1.7411721917530105E9, 0.0, 2025-03-05 10:56:31.753
64.0, -93.42644079308957, -44.92180831776932, 11.513282013591379, 7.002962667029351, 0.0, 0.0, 0.9920000471174717, 0.0, 0.0, 0.0, 0.0, 0.0, 1.7411721917531152E9, 0.0, 2025-03-05 10:56:31.753
65.0, -30.745717535726726, 105.45208910061046, 8.925271244253963, 58.03015766246244, 0.0, 0.0, 0.9920000471174717, 0.0, 0.0, 0.0, 0.0, 0.0, 1.7411721917531943E9, 0.0, 2025-03-05 10:56:31.753
65.0, -113.44986515585333, -35.60571752814576, 16.31531355669722, -11.348726415541023, 0.0, 0.0, 0.9920000471174717, 0.0, 0.0, 0.0, 0.0, 0.0, 1.7411721917532668E9, 0.0, 2025-03-05 10:56:31.753
66.0, -170.29634448233992, -173.57436679350212, 12.29866100428626, -71.28436310542747, 0.0, 0.0, 0.9920000471174717, 0.0, 0.0, 0.0, 0.0, 0.0, 1.7411721917810388E9, 0.0, 2025-03-05 10:56:31.781
66.0, -91.92674091085792, -40.99117346433923, 10.929857620503753, 5.544401684310287, 0.0, 0.0, 0.9920000471174717, 0.0, 0.0, 0.0, 0.0, 0.0, 1.7411721917811952E9, 0.0, 2025-03-05 10:56:31.781
67.0, -27.462085374630988, 104.48345501208678, 11.135552118066698, 57.68608686653897, 0.0, 0.0, 0.9920000471174717, 0.0, 0.0, 0.0, 0.0, 0.0, 1.7411721917815385E9, 0.0, 2025-03-05 10:56:31.781
67.0, -109.17141960654408, -29.5508194998838, 14.950250072870404, -6.804747969377786, 0.0, 0.0, 0.9920000471174717, 0.0, 0.0, 0.0, 0.0, 0.0, 1.7411721917816336E9, 0.0, 2025-03-05 10:56:31.781
68.0, -166.59010362625122, -179.18421672703698, 8.715836846735328, -73.33756818110123, 0.0, 0.0, 0.9920000471174717, 0.0, 0.0, 0.0, 0.0, 0.0, 1.7411721918113308E9, 0.0, 2025-03-05 10:56:31.811
68.0, -86.63104257360101, -47.487379687372595, 11.748895710799843, 2.7544363173656166, 0.0, 0.0, 0.9920000471174717, 0.0, 0.0, 0.0, 0.0, 0.0, 1.7411721918115966E9, 0.0, 2025-03-05 10:56:31.811
69.0, -13.2654251428321, 101.27462085010484, 9.695690635126084, 59.918807140085846, 0.0, 0.0, 0.9920000471174717, 0.0, 0.0, 0.0, 0.0, 0.0, 1.741172191811766E9, 0.0, 2025-03-05 10:56:31.811
69.0, -96.12290866114199, -35.24668713239953, 12.048087707255036, -21.738168492447585, 0.0, 0.0, 0.9920000471174717, 0.0, 0.0, 0.0, 0.0, 0.0, 1.7411721918118825E9, 0.0, 2025-03-05 10:56:31.811
70.0, -160.28837220091373, -175.81456686696038, 13.218676393385977, -67.53698334982619, 0.0, 0.0, 0.9920000471174717, 0.0, 0.0, 0.0, 0.0, 0.0, 1.741172191812259E9, 0.0, 2025-03-05 10:56:31.812
70.0, -81.02493254002184, -36.70524811511859, 10.899938420858234, 1.3631935338489711, 0.0, 0.0, 0.9920000471174717, 0.0, 0.0, 0.0, 0.0, 0.0, 1.7411721918123791E9, 0.0, 2025-03-05 10:56:31.812
71.0, -17.34565599448979, 97.11211219942197, 14.770734874997288, 55.172874096315354, 0.0, 0.0, 0.9920000471174717, 0.0, 0.0, 0.0, 0.0, 0.0, 1.7411721918135705E9, 0.0, 2025-03-05 10:56:31.813
71.0, -99.2681645238772, -40.37408997165039, 12.055567507166415, -22.908757178578526, 0.0, 0.0, 0.9920000471174717, 0.0, 0.0, 0.0, 0.0, 0.0, 1.741172191813705E9, 0.0, 2025-03-05 10:56:31.813
72.0, -163.63932256121188, -181.57775269867852, 9.86772603308782, -76.63615994201973, 0.0, 0.0, 0.9920000471174717, 0.0, 0.0, 0.0, 0.0, 0.0, 1.7411721918411543E9, 0.0, 2025-03-05 10:56:31.841
72.0, -82.13942272681743, -53.34780291793868, 13.88811848545447, -6.688811070751399, 0.0, 0.0, 0.9920000471174717, 0.0, 0.0, 0.0, 0.0, 0.0, 1.7411721918412488E9, 0.0, 2025-03-05 10:56:31.841
73.0, -20.045863762497902, 101.0689263525419, 11.292627916205674, 45.58377060992643, 0.0, 0.0, 0.9920000471174717, 0.0, 0.0, 0.0, 0.0, 0.0, 1.7411721918415904E9, 0.0, 2025-03-05 10:56:31.841
73.0, -104.61996136046946, -36.38361671892926, 15.021308172028512, -28.297953014727682, 0.0, 0.0, 0.9920000471174717, 0.0, 0.0, 0.0, 0.0, 0.0, 1.741172191841698E9, 0.0, 2025-03-05 10:56:31.841
74.0, -160.2621929012239, -174.77487467927858, 18.061846836004406, -85.36882633855566, 0.0, 0.0, 0.9920000471174717, 0.0, 0.0, 0.0, 0.0, 0.0, 1.7411721918710957E9, 0.0, 2025-03-05 10:56:31.871
74.0, -87.42390136420727, -41.17068866221234, 10.24919582856819, 0.5553751434199512, 0.0, 0.0, 0.9920000471174717, 0.0, 0.0, 0.0, 0.0, 0.0, 1.7411721918712583E9, 0.0, 2025-03-05 10:56:31.871
75.0, -19.31658327113837, 99.1391379754059, 13.035421295557171, 58.66968055488542, 0.0, 0.0, 0.9920000471174717, 0.0, 0.0, 0.0, 0.0, 0.0, 1.7411721918715384E9, 0.0, 2025-03-05 10:56:31.871
75.0, -98.59498253185302, -36.256460120435804, 14.27706808084622, -16.27043475722894, 0.0, 0.0, 0.9920000471174717, 0.0, 0.0, 0.0, 0.0, 0.0, 1.7411721918716905E9, 0.0, 2025-03-05 10:56:31.871
76.0, -165.09788354393095, -170.96017672447488, 10.567087324801832, -75.06166206067428, 0.0, 0.0, 0.9920000471174717, 0.0, 0.0, 0.0, 0.0, 0.0, 1.741172191872166E9, 0.0, 2025-03-05 10:56:31.872
76.0, -90.64021532610059, -27.048826429527253, 11.47588301403448, -0.27114274678751826, 0.0, 0.0, 0.9920000471174717, 0.0, 0.0, 0.0, 0.0, 0.0, 1.7411721918723476E9, 0.0, 2025-03-05 10:56:31.872
77.0, -24.313089611940086, 115.08233148651198, 10.447410526219755, 53.83398991217837, 0.0, 0.0, 0.9920000471174717, 0.0, 0.0, 0.0, 0.0, 0.0, 1.741172191872848E9, 0.0, 2025-03-05 10:56:31.872
77.0, -102.83602908160537, -21.281900697853416, 12.751188898924738, -16.128318558912724, 0.0, 0.0, 0.9920000471174717, 0.0, 0.0, 0.0, 0.0, 0.0, 1.7411721918729875E9, 0.0, 2025-03-05 10:56:31.872
78.0, -168.01500550936908, -161.97693703090772, 9.321700639557093, -74.61661396594718, 0.0, 0.0, 0.9920000471174717, 0.0, 0.0, 0.0, 0.0, 0.0, 1.7411721919012432E9, 0.0, 2025-03-05 10:56:31.901
78.0, -87.72309336066246, -25.825879144016653, 11.45718351425603, 3.307941510807723, 0.0, 0.0, 0.9920000471174717, 0.0, 0.0, 0.0, 0.0, 0.0, 1.7411721919014063E9, 0.0, 2025-03-05 10:56:31.901
79.0, -24.829195805825293, 116.79520566621795, 10.439930726308376, 64.74701798288152, 0.0, 0.0, 0.9920000471174717, 0.0, 0.0, 0.0, 0.0, 0.0, 1.7411721919016151E9, 0.0, 2025-03-05 10:56:31.901
79.0, -108.10554811917245, -24.35983836138621, 12.26500190468505, -11.823693709913641, 0.0, 0.0, 0.9920000471174717, 0.0, 0.0, 0.0, 0.0, 0.0, 1.7411721919017577E9, 0.0, 2025-03-05 10:56:31.901
80.0, -173.96518633887172, -166.68173117516562, 12.889565197285265, -74.47823766758665, 0.0, 0.0, 1.008000047877431, 0.0, 0.0, 0.0, 0.0, 0.0, 1.7411721919313383E9, 0.0, 2025-03-05 10:56:31.931
80.0, -91.25729881878942, -41.058491663541645, 16.468649454880506, -5.4284647856839, 0.0, 0.0, 1.008000047877431, 0.0, 0.0, 0.0, 0.0, 0.0, 1.7411721919314554E9, 0.0, 2025-03-05 10:56:31.931
81.0, -24.97131200414151, 112.68505561491475, 8.24086955236271, 54.05464400956407, 0.0, 0.0, 1.008000047877431, 0.0, 0.0, 0.0, 0.0, 0.0, 1.7411721919316778E9, 0.0, 2025-03-05 10:56:31.931
81.0, -109.51549040246755, -37.12411691015586, 11.84239320969209, -25.724901845213026, 0.0, 0.0, 1.008000047877431, 0.0, 0.0, 0.0, 0.0, 0.0, 1.7411721919317517E9, 0.0, 2025-03-05 10:56:31.931
82.0, -170.66659457795322, -182.5538665871136, 11.640438612084836, -76.14623304782435, -0.01600000075995922, 0.0, 1.008000047877431, 0.0, 0.0, 0.0, 0.0, 0.0, 1.7411721919324107E9, 0.0, 2025-03-05 10:56:31.932
82.0, -94.05848388560116, -46.298091501463205, 8.588680248241872, -1.81198152853176, -0.01600000075995922, 0.0, 1.008000047877431, 0.0, 0.0, 0.0, 0.0, 0.0, 1.741172191932597E9, 0.0, 2025-03-05 10:56:31.932
83.0, -20.737745254300535, 106.6264176866971, 7.137599065434188, 62.731211906764656, -0.01600000075995922, 0.0, 1.008000047877431, 0.0, 0.0, 0.0, 0.0, 0.0, 1.741172191933168E9, 0.0, 2025-03-05 10:56:31.933
83.0, -105.87282784562558, -33.94146204786375, 9.84528663335368, -15.982462460640818, -0.01600000075995922, 0.0, 1.008000047877431, 0.0, 0.0, 0.0, 0.0, 0.0, 1.7411721919332528E9, 0.0, 2025-03-05 10:56:31.933
84.0, -166.9678335217759, -178.98226212942973, 11.44222391443327, -82.44422457320616, -0.01600000075995922, 0.0, 1.008000047877431, 0.0, 0.0, 0.0, 0.0, 0.0, 1.7411721919912355E9, 0.0, 2025-03-05 10:56:31.991
84.0, -84.3721430003643, -47.78657168382779, 7.934197755996138, -5.563101184088737, -0.01600000075995922, 0.0, 1.008000047877431, 0.0, 0.0, 0.0, 0.0, 0.0, 1.7411721919914112E9, 0.0, 2025-03-05 10:56:31.991
85.0, -17.828103088773787, 107.99896097043529, 7.623786059673876, 65.4575989744626, -0.01600000075995922, 0.0, 1.008000047877431, 0.0, 0.0, 0.0, 0.0, 0.0, 1.7411721919915617E9, 0.0, 2025-03-05 10:56:31.991
85.0, -104.92663315683603, -27.10866482881829, 10.66058482369408, -12.508095401804894, -0.01600000075995922, 0.0, 1.008000047877431, 0.0, 0.0, 0.0, 0.0, 0.0, 1.7411721919917543E9, 0.0, 2025-03-05 10:56:31.991
86.0, -163.62062306143343, -172.51971500599757, 13.207456693518907, -69.26481712935492, -0.01600000075995922, 0.0, 1.008000047877431, 0.0, 0.0, 0.0, 0.0, 0.0, 1.7411721919922316E9, 0.0, 2025-03-05 10:56:31.992
86.0, -87.46878016367555, -36.574351616669446, 8.375505950767547, -2.7955752168782055, -0.01600000075995922, 0.0, 1.008000047877431, 0.0, 0.0, 0.0, 0.0, 0.0, 1.7411721919924257E9, 0.0, 2025-03-05 10:56:31.992
87.0, -23.179899925366044, 117.20659466134384, 13.667464388068765, 70.47654471499845, -0.01600000075995922, 0.0, 1.008000047877431, 0.0, 0.0, 0.0, 0.0, 0.0, 1.741172191992957E9, 0.0, 2025-03-05 10:56:31.992
87.0, -98.22473243623972, -24.73756825691089, 14.867972273845226, -12.339799903798848, -0.01600000075995922, 0.0, 1.008000047877431, 0.0, 0.0, 0.0, 0.0, 0.0, 1.741172191993121E9, 0.0, 2025-03-05 10:56:31.993
88.0, -167.62979581393301, -157.95654457854107, 11.812474010046571, -57.7870641653426, -0.01600000075995922, 0.0, 1.008000047877431, 0.0, 0.0, 0.0, 0.0, 0.0, 1.7411721919936104E9, 0.0, 2025-03-05 10:56:31.993
88.0, -88.669288049452, -30.123024193104357, 12.807287398260087, 9.258122340310365, -0.01600000075995922, 0.0, 1.008000047877431, 0.0, 0.0, 0.0, 0.0, 0.0, 1.7411721919938989E9, 0.0, 2025-03-05 10:56:31.993
89.0, -23.27713732421398, 117.67408215580508, 7.088980366010219, 67.74267784738913, -0.01600000075995922, 0.0, 1.008000047877431, 0.0, 0.0, 0.0, 0.0, 0.0, 1.7411721919943836E9, 0.0, 2025-03-05 10:56:31.994
89.0, -104.63492096029222, -15.787987662944943, 7.84444015705958, -9.994882631581277, -0.01600000075995922, 0.0, 1.008000047877431, 0.0, 0.0, 0.0, 0.0, 0.0, 1.7411721919945304E9, 0.0, 2025-03-05 10:56:31.994
90.0, -170.7451324770227, -160.03592895390466, 20.28334740968421, -55.78247778909281, -0.01600000075995922, 0.0, 0.9920000471174717, 0.0, 0.0, 0.0, 0.0, 0.0, 1.7411721920213065E9, 0.0, 2025-03-05 10:56:32.021
90.0, -87.92130805831403, -30.85604458441958, 6.333520574960858, 10.769041922409087, -0.01600000075995922, 0.0, 0.9920000471174717, 0.0, 0.0, 0.0, 0.0, 0.0, 1.7411721920214095E9, 0.0, 2025-03-05 10:56:32.021
91.0, -23.602508620359004, 121.56357810972258, 13.929257384967059, 57.07648317376152, -0.01600000075995922, 0.0, 0.9920000471174717, 0.0, 0.0, 0.0, 0.0, 0.0, 1.7411721920215487E9, 0.0, 2025-03-05 10:56:32.021
91.0, -107.87741422187537, -18.72006922820583, 13.443070390727371, -17.669157340656966, -0.01600000075995922, 0.0, 0.9920000471174717, 0.0, 0.0, 0.0, 0.0, 0.0, 1.7411721920216243E9, 0.0, 2025-03-05 10:56:32.021
92.0, -173.33314324636012, -166.52839527698234, 10.196837229188532, -65.67077327193692, -0.01600000075995922, 0.0, 0.9920000471174717, 0.0, 0.0, 0.0, 0.0, 0.0, 1.7411721920512671E9, 0.0, 2025-03-05 10:56:32.051
92.0, -90.45696022827178, -37.27371290838346, 8.188510952983052, 0.4880569442175329, -0.01600000075995922, 0.0, 0.9920000471174717, 0.0, 0.0, 0.0, 0.0, 0.0, 1.741172192051373E9, 0.0, 2025-03-05 10:56:32.051
93.0, -28.55413616169244, 118.76239304291084, 12.141585206147283, 56.96802607504651, -0.01600000075995922, 0.0, 0.9920000471174717, 0.0, 0.0, 0.0, 0.0, 0.0, 1.7411721920516336E9, 0.0, 2025-03-05 10:56:32.051
93.0, -109.13776050694287, -18.974382425192744, 11.07571371877566, -15.52245476609096, -0.01600000075995922, 0.0, 0.9920000471174717, 0.0, 0.0, 0.0, 0.0, 0.0, 1.7411721920517192E9, 0.0, 2025-03-05 10:56:32.051
94.0, -176.42604050971568, -166.92108477232978, 10.219276628922671, -74.83726806333289, -0.01600000075995922, 0.0, 0.9920000471174717, 0.0, 0.0, 0.0, 0.0, 0.0, 1.741172192052587E9, 0.0, 2025-03-05 10:56:32.052
94.0, -97.0466639501974, -35.467341229785234, 10.952297020237893, -0.2861023466102779, -0.01600000075995922, 0.0, 0.9920000471174717, 0.0, 0.0, 0.0, 0.0, 0.0, 1.7411721920526736E9, 0.0, 2025-03-05 10:56:32.052
