%OpenBCI Raw EXG Data
%Number of channels = 4
%Sample Rate = 200 Hz
%Board = OpenBCI_GUI$BoardGanglionNative
Sample Index, EXG Channel 0, EXG Channel 1, EXG Channel 2, EXG Channel 3, Accel Channel 0, Accel Channel 1, Accel Channel 2, Other, Other, Other, Other, Other, Timestamp, Marker Channel, Timestamp (Formatted)
0.0, -228.00861064856872, -447.56878729723394, 6.262462475802749, 20.973358951509, 0.0, 0.0, 0.0, 0.0, 0.0, 0.0, 0.0, 0.0, 1.7400587812988763E9, 0.0, 2025-02-20 13:39:41.298
1.0, -112.8496112129651, -380.4824618920684, 8.465263549704105, -153.41817598231137, 0.0, -0.01600000075995922, 0.0, 0.0, 0.0, 0.0, 0.0, 0.0, 1.740058781299352E9, 0.0, 2025-02-20 13:39:41.299
1.0, -162.58654072368518, -454.41654411610216, 7.369472862686962, -14.667887626215816, 0.0, -0.01600000075995922, 0.0, 0.0, 0.0, 0.0, 0.0, 0.0, 1.7400587812996469E9, 0.0, 2025-02-20 13:39:41.299
2.0, -256.19249671464786, -539.4057706091553, 14.340646380092949, 164.45836065150797, -0.01600000075995922, -0.01600000075995922, 0.0, 0.0, 0.0, 0.0, 0.0, 0.0, 1.7400587813288531E9, 0.0, 2025-02-20 13:39:41.328
2.0, -204.25650602998212, -484.94908735435456, 10.522208525333554, 41.31841471046209, -0.01600000075995922, -0.01600000075995922, 0.0, 0.0, 0.0, 0.0, 0.0, 0.0, 1.7400587813289487E9, 0.0, 2025-02-20 13:39:41.328
3.0, -86.01956893084571, -387.3339586108923, 10.26415542839095, -146.22634836751968, -0.01600000075995922, -0.01600000075995922, 0.0, 0.0, 0.0, 0.0, 0.0, 0.0, 1.7400587813293111E9, 0.0, 2025-02-20 13:39:41.329
3.0, -131.01430529775098, -455.5459939027205, 8.614859547931701, -12.603462850674987, -0.01600000075995922, -0.01600000075995922, 0.0, 0.0, 0.0, 0.0, 0.0, 0.0, 1.74005878132955E9, 0.0, 2025-02-20 13:39:41.329
4.0, -220.29319703998044, -553.1274635465816, 11.528241613414139, 170.2327661830932, -0.01600000075995922, -0.01600000075995922, 0.0, 0.0, 0.0, 0.0, 0.0, 0.0, 1.7400587813297591E9, 0.0, 2025-02-20 13:39:41.329
4.0, -142.20782586513087, -480.4873867072165, 12.474436302203685, 42.096313901245594, -0.01600000075995922, -0.01600000075995922, 0.0, 0.0, 0.0, 0.0, 0.0, 0.0, 1.740058781329979E9, 0.0, 2025-02-20 13:39:41.329
5.0, -37.17273560957983, -385.3405919345096, 12.833466697949916, -139.6590840453282, -0.01600000075995922, -0.01600000075995922, 0.0, 0.0, 0.0, 0.0, 0.0, 0.0, 1.7400587813590877E9, 0.0, 2025-02-20 13:39:41.359
5.0, -104.10946501651779, -454.30808701738715, 13.708603287581354, 0.24309349711984396, -0.01600000075995922, -0.01600000075995922, 0.0, 0.0, 0.0, 0.0, 0.0, 0.0, 1.7400587813592556E9, 0.0, 2025-02-20 13:39:41.359
6.0, -210.9733663504012, -543.2279483638704, 13.173797593917698, 177.4507730975747, -0.01600000075995922, -0.01600000075995922, 0.0, 0.0, 0.0, 0.0, 0.0, 0.0, 1.7400587813596213E9, 0.0, 2025-02-20 13:39:41.359
6.0, -149.2051786822267, -473.09360449481755, 13.932997284922749, 51.52460168953985, -0.01600000075995922, -0.01600000075995922, 0.0, 0.0, 0.0, 0.0, 0.0, 0.0, 1.740058781359826E9, 0.0, 2025-02-20 13:39:41.359
7.0, -44.75351281976327, -360.1710652327165, 13.51038858992979, -128.08783358242363, -0.01600000075995922, -0.01600000075995922, 0.0, 0.0, 0.0, 0.0, 0.0, 0.0, 1.7400587813599524E9, 0.0, 2025-02-20 13:39:41.359
7.0, -123.83369738282636, -426.6889258446172, 11.614259312395006, 17.562570191919804, -0.01600000075995922, -0.01600000075995922, 0.0, 0.0, 0.0, 0.0, 0.0, 0.0, 1.7400587813601007E9, 0.0, 2025-02-20 13:39:41.360
8.0, -222.02103081950918, -538.6054320186377, 15.829126562457532, 194.96098469011486, -0.01600000075995922, -0.01600000075995922, 0.0, 0.0, 0.0, 0.0, 0.0, 0.0, 1.740058781360862E9, 0.0, 2025-02-20 13:39:41.360
8.0, -160.60439374716952, -489.0068788062781, 9.953743732068688, 59.87579829059541, -0.01600000075995922, -0.01600000075995922, 0.0, 0.0, 0.0, 0.0, 0.0, 0.0, 1.740058781361012E9, 0.0, 2025-02-20 13:39:41.361
9.0, -82.47788367280737, -423.386594183743, 14.651058076415211, -132.40741803124547, -0.01600000075995922, -0.01600000075995922, 0.0, 0.0, 0.0, 0.0, 0.0, 0.0, 1.7400587813903916E9, 0.0, 2025-02-20 13:39:41.390
9.0, -156.5727815949358, -523.4363977983594, 15.612212365027517, 18.662100778892636, -0.01600000075995922, -0.01600000075995922, 0.0, 0.0, 0.0, 0.0, 0.0, 0.0, 1.7400587813906295E9, 0.0, 2025-02-20 13:39:41.390
10.0, -272.894889916759, -634.2010147860274, 12.24256250495091, 212.2168830856681, -0.01600000075995922, -0.01600000075995922, 1.008000047877431, 0.0, 0.0, 0.0, 0.0, 0.0, 1.7400587813909023E9, 0.0, 2025-02-20 13:39:41.390
10.0, -177.48256224719808, -546.657436623238, 10.626925724092871, 74.86531731300056, -0.01600000075995922, -0.01600000075995922, 1.008000047877431, 0.0, 0.0, 0.0, 0.0, 0.0, 1.740058781391013E9, 0.0, 2025-02-20 13:39:41.391
11.0, -71.24696410587057, -452.1090258434415, 8.764455546159297, -115.40583283267915, -0.01600000075995922, 0.0, 1.008000047877431, 0.0, 0.0, 0.0, 0.0, 0.0, 1.740058781419036E9, 0.0, 2025-02-20 13:39:41.419
11.0, -170.34309323178604, -528.3805455397815, 14.587479777168483, 21.80361674167216, -0.01600000075995922, 0.0, 1.008000047877431, 0.0, 0.0, 0.0, 0.0, 0.0, 1.740058781419236E9, 0.0, 2025-02-20 13:39:41.419
12.0, -284.5596378785558, -601.532988673076, 12.006948807742447, 198.7233240455389, 0.0, 0.0, 1.008000047877431, 0.0, 0.0, 0.0, 0.0, 0.0, 1.7400587814194248E9, 0.0, 2025-02-20 13:39:41.419
12.0, -217.21525937644765, -505.6531735090539, 10.387572126928717, 59.348472396843135, 0.0, 0.0, 1.008000047877431, 0.0, 0.0, 0.0, 0.0, 0.0, 1.740058781419587E9, 0.0, 2025-02-20 13:39:41.419
13.0, -115.15712948562577, -412.1855938164517, 12.489395902026445, -131.26674854476005, 0.0, 0.0, 1.008000047877431, 0.0, 0.0, 0.0, 0.0, 0.0, 1.7400587814200025E9, 0.0, 2025-02-20 13:39:41.420
13.0, -197.61818360863253, -493.4498799536377, 12.575413601007313, 3.3659099601209164, 0.0, 0.0, 1.008000047877431, 0.0, 0.0, 0.0, 0.0, 0.0, 1.7400587814201043E9, 0.0, 2025-02-20 13:39:41.420
14.0, -315.3539741137065, -586.5359898507595, 16.902477849740535, 177.92948029190302, 0.0, 0.0, 1.008000047877431, 0.0, 0.0, 0.0, 0.0, 0.0, 1.740058781420761E9, 0.0, 2025-02-20 13:39:41.420
14.0, -219.9042474445887, -486.06357754115015, 13.723562887404114, 41.36703340988606, 0.0, 0.0, 1.008000047877431, 0.0, 0.0, 0.0, 0.0, 0.0, 1.7400587814209201E9, 0.0, 2025-02-20 13:39:41.420
15.0, -138.92793360399082, -403.7558593163267, 8.831773745361716, -139.2551748501137, 0.0, 0.0, 1.008000047877431, 0.0, 0.0, 0.0, 0.0, 0.0, 1.740058781448728E9, 0.0, 2025-02-20 13:39:41.448
15.0, -232.29453599778935, -498.379068095237, 12.904524797108024, -0.022439399734139442, 0.0, 0.0, 1.008000047877431, 0.0, 0.0, 0.0, 0.0, 0.0, 1.7400587814488733E9, 0.0, 2025-02-20 13:39:41.448
16.0, -336.0730198682286, -578.4652857463807, 18.151604434940964, 180.55489006079733, 0.0, 0.0, 1.008000047877431, 0.0, 0.0, 0.0, 0.0, 0.0, 1.7400587814492743E9, 0.0, 2025-02-20 13:39:41.449
16.0, -252.78170795505866, -484.1150896642357, 16.154497858602554, 42.99014999065548, 0.0, 0.0, 1.008000047877431, 0.0, 0.0, 0.0, 0.0, 0.0, 1.740058781449409E9, 0.0, 2025-02-20 13:39:41.449
17.0, -167.9121582605876, -393.72170773521066, 8.001515955198556, -138.12198516353965, 0.0, 0.0, 1.008000047877431, 0.0, 0.0, 0.0, 0.0, 0.0, 1.7400587814792717E9, 0.0, 2025-02-20 13:39:41.479
17.0, -261.2899803542532, -509.4379522642121, 13.693643687758595, 9.435767588205636, 0.0, 0.0, 1.008000047877431, 0.0, 0.0, 0.0, 0.0, 0.0, 1.7400587814797099E9, 0.0, 2025-02-20 13:39:41.479
18.0, -385.1704264865257, -607.8384599983692, 13.48046939028427, 198.19225825183094, 0.0, 0.0, 1.008000047877431, 0.0, 0.0, 0.0, 0.0, 0.0, 1.7400587814799452E9, 0.0, 2025-02-20 13:39:41.479
18.0, -317.34360089013353, -533.7248625764623, 7.784601757768542, 76.94470168836415, 0.0, 0.0, 1.008000047877431, 0.0, 0.0, 0.0, 0.0, 0.0, 1.7400587814801137E9, 0.0, 2025-02-20 13:39:41.480
19.0, -271.57470523240045, -501.17651326209307, 6.22506347624585, -11.870442459359765, 0.0, 0.0, 1.008000047877431, 0.0, 0.0, 0.0, 0.0, 0.0, 1.740058781480404E9, 0.0, 2025-02-20 13:39:41.480
19.0, -177.92574039194733, -383.5061710062437, 10.63066562404856, -55.19531349604949, 0.0, 0.0, 1.008000047877431, 0.0, 0.0, 0.0, 0.0, 0.0, 1.7400587814805846E9, 0.0, 2025-02-20 13:39:41.480
20.0, -250.8650092277676, -443.98783308966085, 12.231342805083841, -165.34284699102864, 0.0, 0.0, 0.5120000243186951, 0.0, 0.0, 0.0, 0.0, 0.0, 1.740058781480862E9, 0.0, 2025-02-20 13:39:41.480
20.0, -410.4072713875212, -608.3396065924317, 10.327733727637678, 9.323570589534938, 0.0, 0.0, 0.5120000243186951, 0.0, 0.0, 0.0, 0.0, 0.0, 1.7400587814810345E9, 0.0, 2025-02-20 13:39:41.481
21.0, -204.44350102776662, -419.0109112355858, 8.450303949881345, -179.27584427595139, 0.0, -0.01600000075995922, 0.5120000243186951, 0.0, 0.0, 0.0, 0.0, 0.0, 1.7400587815089002E9, 0.0, 2025-02-20 13:39:41.508
21.0, -268.28359327139333, -497.40295420680195, 12.64273180020973, -21.564263144508004, 0.0, -0.01600000075995922, 0.5120000243186951, 0.0, 0.0, 0.0, 0.0, 0.0, 1.7400587815090945E9, 0.0, 2025-02-20 13:39:41.509
22.0, -364.0025927373208, -588.4620383279398, 14.28080798080191, 177.92948029190302, 0.0, -0.01600000075995922, 0.5120000243186951, 0.0, 0.0, 0.0, 0.0, 0.0, 1.740058781509519E9, 0.0, 2025-02-20 13:39:41.509
22.0, -272.7452939185314, -471.3657707152888, 6.999222767073661, 31.482477826997638, 0.0, -0.01600000075995922, 0.5120000243186951, 0.0, 0.0, 0.0, 0.0, 0.0, 1.7400587815097845E9, 0.0, 2025-02-20 13:39:41.509
23.0, -170.38423213129863, -368.78405483067036, 8.26704885205254, -151.6604230031371, 0.0, -0.01600000075995922, 0.5120000243186951, 0.0, 0.0, 0.0, 0.0, 0.0, 1.740058781539604E9, 0.0, 2025-02-20 13:39:41.539
23.0, -259.89499767078087, -471.94545520842075, 13.86567908572033, -9.577883786521852, 0.0, -0.01600000075995922, 0.5120000243186951, 0.0, 0.0, 0.0, 0.0, 0.0, 1.7400587815398831E9, 0.0, 2025-02-20 13:39:41.539
24.0, -349.5254400088452, -555.6481561167166, 14.505201978143305, 157.65922253206372, 0.0, -0.01600000075995922, 0.5120000243186951, 0.0, 0.0, 0.0, 0.0, 0.0, 1.740058781540054E9, 0.0, 2025-02-20 13:39:41.540
24.0, -224.4257864910178, -419.88604782521725, 15.544894165825099, 9.484386287629604, 0.0, -0.01600000075995922, 0.5120000243186951, 0.0, 0.0, 0.0, 0.0, 0.0, 1.7400587815401723E9, 0.0, 2025-02-20 13:39:41.540
25.0, -116.03226607525721, -321.4032622920349, 10.342693327460438, -188.386240568012, 0.0, -0.01600000075995922, 0.5120000243186951, 0.0, 0.0, 0.0, 0.0, 0.0, 1.7400587815403E9, 0.0, 2025-02-20 13:39:41.540
25.0, -207.06143099674955, -433.5366826634854, 15.028787971939892, -40.31986142229289, 0.0, -0.01600000075995922, 0.5120000243186951, 0.0, 0.0, 0.0, 0.0, 0.0, 1.7400587815404375E9, 0.0, 2025-02-20 13:39:41.540
26.0, -308.06490910006687, -504.89397381804883, 16.966056148987263, 137.37026527244598, 0.0, -0.01600000075995922, 0.5120000243186951, 0.0, 0.0, 0.0, 0.0, 0.0, 1.7400587815409048E9, 0.0, 2025-02-20 13:39:41.540
26.0, -183.56737947510555, -374.49114216305315, 16.75662175146863, -17.64484799094498, 0.0, -0.01600000075995922, 0.5120000243186951, 0.0, 0.0, 0.0, 0.0, 0.0, 1.740058781541274E9, 0.0, 2025-02-20 13:39:41.541
27.0, -79.62807990657166, -285.77697531413287, 10.436190826352686, -205.26440906804055, 0.0, -0.01600000075995922, 0.5120000243186951, 0.0, 0.0, 0.0, 0.0, 0.0, 1.7400587815694413E9, 0.0, 2025-02-20 13:39:41.569
27.0, -191.53336638072506, -407.80991086829454, 15.324240068439394, -48.521462025120854, 0.0, -0.01600000075995922, 0.5120000243186951, 0.0, 0.0, 0.0, 0.0, 0.0, 1.7400587815699868E9, 0.0, 2025-02-20 13:39:41.569
28.0, -276.6235701725818, -492.77669796161354, 18.125425135251135, 129.27338186837733, 0.0, -0.01600000075995922, 0.5120000243186951, 0.0, 0.0, 0.0, 0.0, 0.0, 1.7400587815703068E9, 0.0, 2025-02-20 13:39:41.570
28.0, -173.6566445925273, -381.6530505781993, 13.846979585941881, -21.459545945748687, 0.0, -0.01600000075995922, 0.5120000243186951, 0.0, 0.0, 0.0, 0.0, 0.0, 1.7400587815704117E9, 0.0, 2025-02-20 13:39:41.570
29.0, -76.6099806423299, -295.8747051944956, 7.077760666143149, -197.53029595967382, 0.0, -0.01600000075995922, 0.5120000243186951, 0.0, 0.0, 0.0, 0.0, 0.0, 1.7400587815987916E9, 0.0, 2025-02-20 13:39:41.598
29.0, -199.46943408669904, -408.32975696213543, 12.033128107432276, -42.30200839880854, 0.0, -0.01600000075995922, 0.5120000243186951, 0.0, 0.0, 0.0, 0.0, 0.0, 1.740058781599154E9, 0.0, 2025-02-20 13:39:41.599
30.0, -303.8687413497828, -502.1750665502623, 13.719822987448424, 131.00869544781744, 0.0, -0.01600000075995922, 0.7520000357180834, 0.0, 0.0, 0.0, 0.0, 0.0, 1.740058781599584E9, 0.0, 2025-02-20 13:39:41.599
30.0, -189.94764879951254, -375.09326605591923, 10.432450926396996, -24.630981108173728, 0.0, -0.01600000075995922, 0.7520000357180834, 0.0, 0.0, 0.0, 0.0, 0.0, 1.7400587815998144E9, 0.0, 2025-02-20 13:39:41.599
31.0, -102.71822223300114, -288.75393567886204, 9.819107333663851, -190.7535972399637, 0.0, -0.01600000075995922, 0.7520000357180834, 0.0, 0.0, 0.0, 0.0, 0.0, 1.740058781600109E9, 0.0, 2025-02-20 13:39:41.600
31.0, -240.95988419512287, -417.95251954812557, 11.89849170902744, -36.879153463058174, 0.0, -0.01600000075995922, 0.7520000357180834, 0.0, 0.0, 0.0, 0.0, 0.0, 1.740058781600431E9, 0.0, 2025-02-20 13:39:41.600
32.0, -332.5500341099687, -511.8015690362081, 17.49712194269523, 138.42117715999484, 0.0, -0.01600000075995922, 0.7520000357180834, 0.0, 0.0, 0.0, 0.0, 0.0, 1.7400587816007173E9, 0.0, 2025-02-20 13:39:41.600
32.0, -206.4181682043709, -366.0314884632826, 10.544647925067693, -2.6852481681853533, 0.0, -0.01600000075995922, 0.7520000357180834, 0.0, 0.0, 0.0, 0.0, 0.0, 1.7400587816009483E9, 0.0, 2025-02-20 13:39:41.600
33.0, -112.5167601169087, -293.75044201966375, 7.302154663484544, -180.58106936048716, 0.0, -0.01600000075995922, 0.7520000357180834, 0.0, 0.0, 0.0, 0.0, 0.0, 1.7400587816288092E9, 0.0, 2025-02-20 13:39:41.628
33.0, -248.78749480238184, -434.9466249467805, 10.312774127814919, -23.920400116592646, 0.0, -0.01600000075995922, 0.7520000357180834, 0.0, 0.0, 0.0, 0.0, 0.0, 1.7400587816291509E9, 0.0, 2025-02-20 13:39:41.629
34.0, -355.2661864408292, -536.4998683435842, 11.44970371434465, 152.05311249848455, 0.0, -0.01600000075995922, 0.7520000357180834, 0.0, 0.0, 0.0, 0.0, 0.0, 1.7400587816294603E9, 0.0, 2025-02-20 13:39:41.629
34.0, -223.07568260701373, -398.6321963770315, 10.608226224314421, 1.7502731792628765, 0.0, -0.01600000075995922, 0.7520000357180834, 0.0, 0.0, 0.0, 0.0, 0.0, 1.7400587816295664E9, 0.0, 2025-02-20 13:39:41.629
35.0, -139.80307019362226, -314.79485907033086, 11.977029608096927, -170.10934948455542, 0.0, -0.01600000075995922, 0.7520000357180834, 0.0, 0.0, 0.0, 0.0, 0.0, 1.7400587816589289E9, 0.0, 2025-02-20 13:39:41.658
35.0, -273.24270061263815, -463.23522821161896, 10.488549425732344, -19.858868764713407, 0.0, -0.01600000075995922, 0.7520000357180834, 0.0, 0.0, 0.0, 0.0, 0.0, 1.7400587816591647E9, 0.0, 2025-02-20 13:39:41.659
36.0, -362.9217616501264, -552.5029002539814, 9.800407833885401, 151.0769986100495, 0.0, -0.01600000075995922, 0.7520000357180834, 0.0, 0.0, 0.0, 0.0, 0.0, 1.740058781659333E9, 0.0, 2025-02-20 13:39:41.659
36.0, -233.21829128684476, -409.3470097500831, 12.152804906014353, 1.7764524789527059, 0.0, -0.01600000075995922, 0.7520000357180834, 0.0, 0.0, 0.0, 0.0, 0.0, 1.7400587816595235E9, 0.0, 2025-02-20 13:39:41.659
37.0, -135.6031625433825, -335.0164981307462, 9.145925341639668, -189.25015745777637, 0.0, -0.01600000075995922, 0.7520000357180834, 0.0, 0.0, 0.0, 0.0, 0.0, 1.7400587816600764E9, 0.0, 2025-02-20 13:39:41.660
37.0, -264.1136048207991, -481.02967220079154, 11.180430917534977, -43.60349358338863, 0.0, -0.01600000075995922, 0.7520000357180834, 0.0, 0.0, 0.0, 0.0, 0.0, 1.740058781660306E9, 0.0, 2025-02-20 13:39:41.660
38.0, -347.0010075387545, -541.6347509827465, 13.353312791790813, 123.1698651406914, 0.0, -0.01600000075995922, 0.7520000357180834, 0.0, 0.0, 0.0, 0.0, 0.0, 1.740058781660846E9, 0.0, 2025-02-20 13:39:41.660
38.0, -200.49042677460238, -392.39030335098505, 7.807041157502681, -29.41805305145681, 0.0, -0.01600000075995922, 0.7520000357180834, 0.0, 0.0, 0.0, 0.0, 0.0, 1.7400587816609497E9, 0.0, 2025-02-20 13:39:41.660
39.0, -89.35181979136541, -299.693143049255, 9.06738744257018, -204.74082307424396, 0.0, -0.01600000075995922, 0.7520000357180834, 0.0, 0.0, 0.0, 0.0, 0.0, 1.7400587816887455E9, 0.0, 2025-02-20 13:39:41.688
39.0, -236.41216584900394, -449.00864878017455, 12.182724105659872, -40.92572521511465, 0.0, -0.01600000075995922, 0.7520000357180834, 0.0, 0.0, 0.0, 0.0, 0.0, 1.7400587816890109E9, 0.0, 2025-02-20 13:39:41.689
40.0, -308.2743434975855, -519.1803916487843, 14.901631373446435, 133.21897632163018, 0.0, -0.01600000075995922, 0.8800000417977571, 0.0, 0.0, 0.0, 0.0, 0.0, 1.7400587816896558E9, 0.0, 2025-02-20 13:39:41.689
40.0, -179.40861072437838, -366.098806662485, 11.015875319484621, -20.09822236187756, 0.0, -0.01600000075995922, 0.8800000417977571, 0.0, 0.0, 0.0, 0.0, 0.0, 1.7400587816961534E9, 0.0, 2025-02-20 13:39:41.696
41.0, -77.57861473085359, -288.2827082844451, 11.950850308407098, -180.59228906035423, 0.0, 0.0, 0.8800000417977571, 0.0, 0.0, 0.0, 0.0, 0.0, 1.7400587817194705E9, 0.0, 2025-02-20 13:39:41.719
41.0, -215.98483229102567, -447.9614767925814, 16.2479953574948, -24.836675605736673, 0.0, 0.0, 0.8800000417977571, 0.0, 0.0, 0.0, 0.0, 0.0, 1.740058781720063E9, 0.0, 2025-02-20 13:39:41.720
42.0, -296.46747933747247, -526.8920653574169, 10.567087324801832, 142.45278931222856, 0.0, 0.0, 0.8800000417977571, 0.0, 0.0, 0.0, 0.0, 0.0, 1.7400587817203045E9, 0.0, 2025-02-20 13:39:41.720
42.0, -144.41062693903223, -361.36783321853727, 11.217829917091876, -17.64484799094498, 0.0, 0.0, 0.8800000417977571, 0.0, 0.0, 0.0, 0.0, 0.0, 1.7400587817204432E9, 0.0, 2025-02-20 13:39:41.720
43.0, -57.955359663348645, -270.2115116985515, 9.755529034417123, -185.88050759769976, 0.0, 0.0, 0.8800000417977571, 0.0, 0.0, 0.0, 0.0, 0.0, 1.7400587817205992E9, 0.0, 2025-02-20 13:39:41.720
43.0, -211.2688184469007, -431.864947383292, 12.433297402691096, -24.51504420954734, 0.0, 0.0, 0.8800000417977571, 0.0, 0.0, 0.0, 0.0, 0.0, 1.7400587817207892E9, 0.0, 2025-02-20 13:39:41.720
44.0, -306.17625962244347, -523.6832311954349, 13.727302787359804, 156.5896111447364, 0.0, 0.0, 0.8800000417977571, 0.0, 0.0, 0.0, 0.0, 0.0, 1.74005878172097E9, 0.0, 2025-02-20 13:39:41.720
44.0, -168.7311963508837, -372.5763133857399, 11.991989207919687, 4.256006149575114, 0.0, 0.0, 0.8800000417977571, 0.0, 0.0, 0.0, 0.0, 0.0, 1.7400587817211328E9, 0.0, 2025-02-20 13:39:41.721
45.0, -80.20028459979221, -293.9972754167393, 12.092966506723315, -160.16121560242027, 0.0, 0.0, 0.8800000417977571, 0.0, 0.0, 0.0, 0.0, 0.0, 1.7400587817487774E9, 0.0, 2025-02-20 13:39:41.748
45.0, -227.22323165787384, -456.60438559018075, 11.928410908672959, -0.762939590960741, 0.0, 0.0, 0.8800000417977571, 0.0, 0.0, 0.0, 0.0, 0.0, 1.7400587817488904E9, 0.0, 2025-02-20 13:39:41.748
46.0, -319.47908376483247, -547.4876944134012, 14.565040377434343, 159.56283160950989, 0.0, 0.0, 0.8800000417977571, 0.0, 0.0, 0.0, 0.0, 0.0, 1.7400587817492783E9, 0.0, 2025-02-20 13:39:41.749
46.0, -157.2422236870043, -402.58527063019574, 13.794620986562222, 9.465686787851155, 0.0, 0.0, 0.8800000417977571, 0.0, 0.0, 0.0, 0.0, 0.0, 1.7400587817495236E9, 0.0, 2025-02-20 13:39:41.749
47.0, -61.39980752253905, -323.95013416185975, 10.29033472808078, -154.45786816999316, 0.0, 0.0, 0.8800000417977571, 0.0, 0.0, 0.0, 0.0, 0.0, 1.7400587817788668E9, 0.0, 2025-02-20 13:39:41.778
47.0, -224.6464405884035, -508.6563131734729, 12.796067698393017, 12.809157348237932, 0.0, 0.0, 0.8800000417977571, 0.0, 0.0, 0.0, 0.0, 0.0, 1.7400587817790868E9, 0.0, 2025-02-20 13:39:41.779
48.0, -317.67271208623424, -593.5894411671907, 9.721869934815913, 189.55682925414294, 0.0, 0.0, 0.8800000417977571, 0.0, 0.0, 0.0, 0.0, 0.0, 1.7400587817792027E9, 0.0, 2025-02-20 13:39:41.779
48.0, -167.97199665987864, -430.4250859003514, 10.843839921522886, 32.58574831392616, 0.0, 0.0, 0.8800000417977571, 0.0, 0.0, 0.0, 0.0, 0.0, 1.7400587817793045E9, 0.0, 2025-02-20 13:39:41.779
49.0, -99.96939576556906, -356.872473471798, 12.122885706368834, -137.10847227554768, 0.0, 0.0, 0.8800000417977571, 0.0, 0.0, 0.0, 0.0, 0.0, 1.7400587817799432E9, 0.0, 2025-02-20 13:39:41.779
49.0, -269.2185682603158, -533.5490872785449, 13.947956884745508, 17.405494393780828, 0.0, 0.0, 0.8800000417977571, 0.0, 0.0, 0.0, 0.0, 0.0, 1.74005878178032E9, 0.0, 2025-02-20 13:39:41.780
50.0, -351.3766904869117, -604.4613303383812, 15.189603670034558, 190.88823363836855, 0.0, 0.0, 0.9280000440776348, 0.0, 0.0, 0.0, 0.0, 0.0, 1.740058781780664E9, 0.0, 2025-02-20 13:39:41.780
50.0, -177.83785274298862, -425.8362286547199, 10.2828549281694, 47.646325435489416, 0.0, 0.0, 0.9280000440776348, 0.0, 0.0, 0.0, 0.0, 0.0, 1.7400587817807567E9, 0.0, 2025-02-20 13:39:41.780
51.0, -120.03395902784541, -340.55155006516725, 7.44801076175645, -116.42308562062681, 0.0, 0.0, 0.9280000440776348, 0.0, 0.0, 0.0, 0.0, 0.0, 1.7400587818089283E9, 0.0, 2025-02-20 13:39:41.808
51.0, -286.0817771605216, -502.7996298428625, 11.47214311407879, 41.77842240501195, 0.0, 0.0, 0.9280000440776348, 0.0, 0.0, 0.0, 0.0, 0.0, 1.7400587818091629E9, 0.0, 2025-02-20 13:39:41.809
52.0, -355.883269933518, -565.5888101989403, 18.966902625281364, 201.67036521062255, 0.0, 0.0, 0.9280000440776348, 0.0, 0.0, 0.0, 0.0, 0.0, 1.7400587818094964E9, 0.0, 2025-02-20 13:39:41.809
52.0, -187.90192352375016, -383.08543226122856, 11.157991517800838, 31.942485521547496, 0.0, 0.0, 0.9280000440776348, 0.0, 0.0, 0.0, 0.0, 0.0, 1.7400587818096683E9, 0.0, 2025-02-20 13:39:41.809
53.0, -103.30538652604446, -312.8164519937709, 11.154251617845148, -140.04055384080857, 0.0, 0.0, 0.9280000440776348, 0.0, 0.0, 0.0, 0.0, 0.0, 1.74005878183893E9, 0.0, 2025-02-20 13:39:41.838
53.0, -270.4377756458707, -505.0173905165866, 17.86363213835284, 22.55533663276583, 0.0, 0.0, 0.9280000440776348, 0.0, 0.0, 0.0, 0.0, 0.0, 1.740058781839162E9, 0.0, 2025-02-20 13:39:41.839
54.0, -336.1029390678741, -575.2115727849305, 12.941923796664923, 193.40518630854785, 0.0, 0.0, 0.9280000440776348, 0.0, 0.0, 0.0, 0.0, 0.0, 1.7400587818399584E9, 0.0, 2025-02-20 13:39:41.839
54.0, -167.0594610706903, -405.8651628913358, 7.249796064104885, 27.36110807582736, 0.0, 0.0, 0.9280000440776348, 0.0, 0.0, 0.0, 0.0, 0.0, 1.7400587818401449E9, 0.0, 2025-02-20 13:39:41.840
55.0, -73.06455548433587, -337.3015770036727, 12.347279703710228, -141.08024602849036, 0.0, 0.0, 0.9280000440776348, 0.0, 0.0, 0.0, 0.0, 0.0, 1.7400587818403091E9, 0.0, 2025-02-20 13:39:41.840
55.0, -250.20117698563263, -524.2591757886112, 14.426664079073817, 24.88155440520495, 0.0, 0.0, 0.9280000440776348, 0.0, 0.0, 0.0, 0.0, 0.0, 1.740058781840471E9, 0.0, 2025-02-20 13:39:41.840
56.0, -334.4723426871933, -597.613573519513, 17.298907245043665, 184.47430521436036, 0.0, 0.0, 0.9280000440776348, 0.0, 0.0, 0.0, 0.0, 0.0, 1.7400587818407822E9, 0.0, 2025-02-20 13:39:41.840
56.0, -171.68571731587872, -411.9275407195091, 10.858799521345645, 29.070242355577648, 0.0, 0.0, 0.9280000440776348, 0.0, 0.0, 0.0, 0.0, 0.0, 1.74005878184107E9, 0.0, 2025-02-20 13:39:41.841
57.0, -106.71991518558934, -351.8273484315723, 9.935044232290238, -134.23248920962214, 0.0, 0.0, 0.9280000440776348, 0.0, 0.0, 0.0, 0.0, 0.0, 1.740058781868908E9, 0.0, 2025-02-20 13:39:41.868
57.0, -283.12725619552657, -537.7115959292278, 17.803793739061803, 35.562708678655326, 0.0, 0.0, 0.9280000440776348, 0.0, 0.0, 0.0, 0.0, 0.0, 1.7400587818692667E9, 0.0, 2025-02-20 13:39:41.869
58.0, -391.37492051301524, -626.3322652792558, 18.33859943272546, 210.9565368006006, 0.0, 0.0, 0.9280000440776348, 0.0, 0.0, 0.0, 0.0, 0.0, 1.740058781869737E9, 0.0, 2025-02-20 13:39:41.869
58.0, -244.4267714540474, -479.1223232233897, 8.188510952983052, 91.08526342082769, 0.0, 0.0, 0.9280000440776348, 0.0, 0.0, 0.0, 0.0, 0.0, 1.7400587818698487E9, 0.0, 2025-02-20 13:39:41.869
59.0, -309.97786792740226, -538.468925670255, 10.567087324801832, 85.38191598840058, 0.0, 0.0, 0.9280000440776348, 0.0, 0.0, 0.0, 0.0, 0.0, 1.740058781899269E9, 0.0, 2025-02-20 13:39:41.899
59.0, -77.45519803231582, -777.714065735694, 17.14557134686038, 161.72823368385434, 0.0, 0.0, 0.9280000440776348, 0.0, 0.0, 0.0, 0.0, 0.0, 1.740058781899913E9, 0.0, 2025-02-20 13:39:41.899
60.0, -31.493697526864707, -722.8852624353021, 14.078853383194655, 186.33303549233824, 0.0, 0.0, 0.9600000455975533, 0.0, 0.0, 0.0, 0.0, 0.0, 1.7400587819001083E9, 0.0, 2025-02-20 13:39:41.900
60.0, -251.30444747256115, -935.7771974629723, 12.422077702824026, -18.16095418483019, 0.0, 0.0, 0.9600000455975533, 0.0, 0.0, 0.0, 0.0, 0.0, 1.740058781900452E9, 0.0, 2025-02-20 13:39:41.900
61.0, -139.84794899309054, -838.2555662184022, 10.28659482812509, -178.83453608117998, 0.0, -0.01600000075995922, 0.9600000455975533, 0.0, 0.0, 0.0, 0.0, 0.0, 1.7400587819006312E9, 0.0, 2025-02-20 13:39:41.900
61.0, -324.0642011105083, -1028.092887969222, 11.344986515585333, -6.45132742356509, 0.0, -0.01600000075995922, 0.9600000455975533, 0.0, 0.0, 0.0, 0.0, 0.0, 1.7400587819008095E9, 0.0, 2025-02-20 13:39:41.900
62.0, -393.93301208270714, -1078.914388467092, 12.859645997639745, 158.73257381934673, 0.0, -0.01600000075995922, 0.9600000455975533, 0.0, 0.0, 0.0, 0.0, 0.0, 1.740058781901148E9, 0.0, 2025-02-20 13:39:41.901
62.0, -211.36979574570432, -881.5299486056902, 9.84154673339799, -23.628687920048833, 0.0, -0.01600000075995922, 0.9600000455975533, 0.0, 0.0, 0.0, 0.0, 0.0, 1.740058781901292E9, 0.0, 2025-02-20 13:39:41.901
63.0, -141.55334337288514, -819.8589983363636, 10.380092327017337, -186.8715810859576, 0.0, -0.01600000075995922, 0.9600000455975533, 0.0, 0.0, 0.0, 0.0, 0.0, 1.7400587819292667E9, 0.0, 2025-02-20 13:39:41.929
63.0, -323.56679441640154, -1023.5825686226599, 15.773028063122183, -10.120169280096889, 0.0, -0.01600000075995922, 0.9600000455975533, 0.0, 0.0, 0.0, 0.0, 0.0, 1.7400587819295344E9, 0.0, 2025-02-20 13:39:41.929
64.0, -403.5370751689188, -1072.6949348407798, 13.689903787802905, 154.12875697389245, 0.0, -0.01600000075995922, 0.9600000455975533, 0.0, 0.0, 0.0, 0.0, 0.0, 1.74005878193011E9, 0.0, 2025-02-20 13:39:41.930
64.0, -210.14684846019372, -879.2934884321876, 10.926117720548064, -17.24093879573047, 0.0, -0.01600000075995922, 0.9600000455975533, 0.0, 0.0, 0.0, 0.0, 0.0, 1.74005878193035E9, 0.0, 2025-02-20 13:39:41.930
65.0, -141.4935049735941, -806.346739796456, 8.921531344298273, -185.65985350031406, 0.0, -0.01600000075995922, 0.9600000455975533, 0.0, 0.0, 0.0, 0.0, 0.0, 1.7400587819592636E9, 0.0, 2025-02-20 13:39:41.959
65.0, -325.26844889624044, -996.4682939439081, 15.87400536192581, -13.616975738666952, 0.0, -0.01600000075995922, 0.9600000455975533, 0.0, 0.0, 0.0, 0.0, 0.0, 1.740058781959418E9, 0.0, 2025-02-20 13:39:41.959
66.0, -411.7760747713037, -1055.9476628392003, 9.725609834771603, 143.63085779827088, 0.0, -0.01600000075995922, 0.9600000455975533, 0.0, 0.0, 0.0, 0.0, 0.0, 1.7400587819596884E9, 0.0, 2025-02-20 13:39:41.959
66.0, -210.59189655492082, -846.8199371169321, 6.404578674118966, -33.146733307279646, 0.0, -0.01600000075995922, 0.9600000455975533, 0.0, 0.0, 0.0, 0.0, 0.0, 1.7400587819598532E9, 0.0, 2025-02-20 13:39:41.959
67.0, -125.68868776084855, -775.4327267627232, 9.46381683787331, -195.78002278041095, 0.0, -0.01600000075995922, 0.9600000455975533, 0.0, 0.0, 0.0, 0.0, 0.0, 1.7400587819600685E9, 0.0, 2025-02-20 13:39:41.960
67.0, -300.7534046866931, -977.4471627692692, 16.69678335217759, -36.98761056177318, 0.0, -0.01600000075995922, 0.9600000455975533, 0.0, 0.0, 0.0, 0.0, 0.0, 1.7400587819601555E9, 0.0, 2025-02-20 13:39:41.960
68.0, -374.0442241183482, -1040.0979668269865, 15.11106577096507, 120.00216987822205, 0.0, -0.01600000075995922, 0.9600000455975533, 0.0, 0.0, 0.0, 0.0, 0.0, 1.7400587819607372E9, 0.0, 2025-02-20 13:39:41.960
68.0, -180.75871460838243, -829.960468116682, 9.48251633765176, -58.88472480233759, 0.0, -0.01600000075995922, 0.9600000455975533, 0.0, 0.0, 0.0, 0.0, 0.0, 1.7400587819609065E9, 0.0, 2025-02-20 13:39:41.960
69.0, -104.63679091027007, -761.6324959262274, 9.276821840088814, -215.87450524233282, 0.0, -0.01600000075995922, 0.9600000455975533, 0.0, 0.0, 0.0, 0.0, 0.0, 1.740058781988881E9, 0.0, 2025-02-20 13:39:41.988
69.0, -304.9346128371544, -964.9633767171763, 15.399038067553192, -40.390919521450996, 0.0, -0.01600000075995922, 0.9600000455975533, 0.0, 0.0, 0.0, 0.0, 0.0, 1.7400587819889936E9, 0.0, 2025-02-20 13:39:41.988
70.0, -372.29021103912964, -1018.6384208812378, 17.362485544290394, 125.23055001627654, 0.0, -0.01600000075995922, 0.9760000463575125, 0.0, 0.0, 0.0, 0.0, 0.0, 1.7400587819896352E9, 0.0, 2025-02-20 13:39:41.989
70.0, -163.52899551251903, -815.6665704860352, 7.096460165921599, -33.90219309832901, 0.0, -0.01600000075995922, 0.9760000463575125, 0.0, 0.0, 0.0, 0.0, 0.0, 1.7400587819900615E9, 0.0, 2025-02-20 13:39:41.990
71.0, -79.18677171180025, -760.5030461396091, 10.215536728966981, -184.99041140824556, 0.0, -0.01600000075995922, 0.9760000463575125, 0.0, 0.0, 0.0, 0.0, 0.0, 1.740058782019459E9, 0.0, 2025-02-20 13:39:42.019
71.0, -299.47061900189146, -983.105631402228, 15.264401669148356, -4.637475945055485, 0.0, -0.01600000075995922, 0.9760000463575125, 0.0, 0.0, 0.0, 0.0, 0.0, 1.7400587820195851E9, 0.0, 2025-02-20 13:39:42.019
72.0, -372.9783526309766, -1045.423584363889, 13.989095784258097, 152.0381528986618, 0.0, -0.01600000075995922, 0.9760000463575125, 0.0, 0.0, 0.0, 0.0, 0.0, 1.740058782020033E9, 0.0, 2025-02-20 13:39:42.020
72.0, -154.351281021256, -822.0991984098218, 13.798360886517912, -23.086402426473796, 0.0, -0.01600000075995922, 0.9760000463575125, 0.0, 0.0, 0.0, 0.0, 0.0, 1.7400587820203235E9, 0.0, 2025-02-20 13:39:42.020
73.0, -84.47499024914578, -758.7864320599474, 7.672404759097844, -179.44413977395743, 0.0, -0.01600000075995922, 0.9760000463575125, 0.0, 0.0, 0.0, 0.0, 0.0, 1.7400587820207338E9, 0.0, 2025-02-20 13:39:42.020
73.0, -296.4637394375168, -986.6360969603993, 9.673251235391945, -3.3172912606969476, 0.0, -0.01600000075995922, 0.9760000463575125, 0.0, 0.0, 0.0, 0.0, 0.0, 1.7400587820209968E9, 0.0, 2025-02-20 13:39:42.020
74.0, -350.0378063027747, -1032.3414143188857, 13.633805288467556, 152.63653689157218, 0.0, -0.01600000075995922, 0.9760000463575125, 0.0, 0.0, 0.0, 0.0, 0.0, 1.740058782021416E9, 0.0, 2025-02-20 13:39:42.021
74.0, -138.22483241232112, -825.498767469544, 10.129519029986113, -17.7121661901474, 0.0, -0.01600000075995922, 0.9760000463575125, 0.0, 0.0, 0.0, 0.0, 0.0, 1.740058782021611E9, 0.0, 2025-02-20 13:39:42.021
75.0, -78.92123881494626, -776.7529114470817, 6.733689870219678, -179.0477103786543, 0.0, -0.01600000075995922, 0.9760000463575125, 0.0, 0.0, 0.0, 0.0, 0.0, 1.7400587820486772E9, 0.0, 2025-02-20 13:39:42.048
75.0, -300.9665789841674, -994.961114261765, 14.961469772737473, -0.4637475945055485, 0.0, -0.01600000075995922, 0.9760000463575125, 0.0, 0.0, 0.0, 0.0, 0.0, 1.7400587820489285E9, 0.0, 2025-02-20 13:39:42.048
76.0, -366.822477303911, -1053.262414671015, 10.23049632878974, 145.5157673759386, 0.0, -0.01600000075995922, 0.9760000463575125, 0.0, 0.0, 0.0, 0.0, 0.0, 1.7400587820492797E9, 0.0, 2025-02-20 13:39:42.049
76.0, -158.10240067681298, -833.7789059714414, 8.162331653293222, -28.12778756674379, 0.0, -0.01600000075995922, 0.9760000463575125, 0.0, 0.0, 0.0, 0.0, 0.0, 1.740058782049477E9, 0.0, 2025-02-20 13:39:42.049
77.0, -97.91993058985099, -779.2997833169065, 7.803301257546991, -168.1533818077296, 0.0, -0.01600000075995922, 0.9760000463575125, 0.0, 0.0, 0.0, 0.0, 0.0, 1.7400587820791948E9, 0.0, 2025-02-20 13:39:42.079
77.0, -323.89216571254656, -1004.93542744359, 18.611612129490823, 13.744132337160408, 0.0, -0.01600000075995922, 0.9760000463575125, 0.0, 0.0, 0.0, 0.0, 0.0, 1.7400587820794535E9, 0.0, 2025-02-20 13:39:42.079
78.0, -391.22906441474333, -1054.9603292508982, 13.966656384523958, 170.35244298167527, 0.0, -0.01600000075995922, 0.9760000463575125, 0.0, 0.0, 0.0, 0.0, 0.0, 1.7400587820797489E9, 0.0, 2025-02-20 13:39:42.079
78.0, -174.15779118658975, -833.1655623787083, 10.870019221212715, -0.5048864940181375, 0.0, -0.01600000075995922, 0.9760000463575125, 0.0, 0.0, 0.0, 0.0, 0.0, 1.7400587820799687E9, 0.0, 2025-02-20 13:39:42.079
79.0, -98.99702177708969, -772.455766397994, 10.376352427061647, -155.19088856130838, 0.0, -0.01600000075995922, 0.9760000463575125, 0.0, 0.0, 0.0, 0.0, 0.0, 1.7400587820801759E9, 0.0, 2025-02-20 13:39:42.080
79.0, -303.21799875749275, -1007.4673397135921, 13.49916889006272, 12.775498248636723, 0.0, -0.01600000075995922, 0.9760000463575125, 0.0, 0.0, 0.0, 0.0, 0.0, 1.740058782080452E9, 0.0, 2025-02-20 13:39:42.080
80.0, -370.7942510568537, -1058.9021838041954, 12.822246998082846, 172.50288545619696, 0.0, -0.01600000075995922, 0.9920000471174717, 0.0, 0.0, 0.0, 0.0, 0.0, 1.740058782080868E9, 0.0, 2025-02-20 13:39:42.080
80.0, -127.3379836413078, -830.0764050153084, 7.309634463395923, -0.3066717963665724, 0.0, -0.01600000075995922, 0.9920000471174717, 0.0, 0.0, 0.0, 0.0, 0.0, 1.740058782081029E9, 0.0, 2025-02-20 13:39:42.081
81.0, -65.41272017499432, -777.4934116383083, 8.981369743589312, -151.98953419923782, 0.0, -0.01600000075995922, 0.9920000471174717, 0.0, 0.0, 0.0, 0.0, 0.0, 1.7400587821090207E9, 0.0, 2025-02-20 13:39:42.109
81.0, -309.9834777773358, -537.2478483347222, 11.969549808185548, 24.11113501433283, 0.0, -0.01600000075995922, 0.9920000471174717, 0.0, 0.0, 0.0, 0.0, 0.0, 1.7400587821092367E9, 0.0, 2025-02-20 13:39:42.109
82.0, -358.94250809727237, -573.7604916021228, 13.241115793120116, 175.67058071866632, 0.0, -0.01600000075995922, 0.9920000471174717, 0.0, 0.0, 0.0, 0.0, 0.0, 1.7400587821094308E9, 0.0, 2025-02-20 13:39:42.109
82.0, -138.44922640966251, -363.81746768951416, 8.809334345627576, -3.62770295701921, 0.0, -0.01600000075995922, 0.9920000471174717, 0.0, 0.0, 0.0, 0.0, 0.0, 1.7400587821096067E9, 0.0, 2025-02-20 13:39:42.109
83.0, -74.59791446616873, -319.159322318621, 11.49458251381293, -158.04443222749978, 0.0, -0.01600000075995922, 0.9920000471174717, 0.0, 0.0, 0.0, 0.0, 0.0, 1.7400587821388605E9, 0.0, 2025-02-20 13:39:42.138
83.0, -302.98612496024, -545.4045701380819, 12.919484396930784, 8.45217389985919, 0.0, -0.01600000075995922, 0.9920000471174717, 0.0, 0.0, 0.0, 0.0, 0.0, 1.7400587821391168E9, 0.0, 2025-02-20 13:39:42.139
84.0, -379.32496285578236, -621.4292564373463, 9.44137743813917, 159.66006900835782, 0.0, -0.01600000075995922, 0.9920000471174717, 0.0, 0.0, 0.0, 0.0, 0.0, 1.740058782139305E9, 0.0, 2025-02-20 13:39:42.139
84.0, -613.8260398274288, -393.05226564314216, 7.332073863130063, -12.768018448725343, 0.0, -0.01600000075995922, 0.9920000471174717, 0.0, 0.0, 0.0, 0.0, 0.0, 1.74005878213969E9, 0.0, 2025-02-20 13:39:42.139
85.0, -559.3805762724951, -359.0303957462311, 10.28659482812509, -150.8152056131512, 0.0, -0.01600000075995922, 0.9920000471174717, 0.0, 0.0, 0.0, 0.0, 0.0, 1.7400587821401436E9, 0.0, 2025-02-20 13:39:42.140
85.0, -778.920183471404, -130.06811060896143, 12.130365506280214, 31.302962629124522, 0.0, -0.01600000075995922, 0.9920000471174717, 0.0, 0.0, 0.0, 0.0, 0.0, 1.740058782140492E9, 0.0, 2025-02-20 13:39:42.140
86.0, -824.0832153363153, -173.5818465934135, 15.847826062235981, 178.8607153808698, 0.0, -0.01600000075995922, 0.9920000471174717, 0.0, 0.0, 0.0, 0.0, 0.0, 1.7400587821409962E9, 0.0, 2025-02-20 13:39:42.140
86.0, -579.0374904396012, 61.63542121974751, 9.804147733841091, -1.6455559805035591, 0.0, -0.01600000075995922, 0.9920000471174717, 0.0, 0.0, 0.0, 0.0, 0.0, 1.7400587821411748E9, 0.0, 2025-02-20 13:39:42.141
87.0, -519.5843008439988, 113.27595980791375, 6.991742967162281, -153.79590587783605, 0.0, -0.01600000075995922, 0.9920000471174717, 0.0, 0.0, 0.0, 0.0, 0.0, 1.7400587821688435E9, 0.0, 2025-02-20 13:39:42.168
87.0, -282.6410692012869, 354.9052860951051, 16.876298550050706, 27.559322773478925, 0.0, -0.01600000075995922, 0.9920000471174717, 0.0, 0.0, 0.0, 0.0, 0.0, 1.740058782169004E9, 0.0, 2025-02-20 13:39:42.169
88.0, -317.85222728410736, 317.09863744303584, 8.117452853824943, 172.4168677572161, 0.0, -0.01600000075995922, 0.9920000471174717, 0.0, 0.0, 0.0, 0.0, 0.0, 1.740058782169276E9, 0.0, 2025-02-20 13:39:42.169
88.0, -90.89639847306535, 557.764939491637, 9.699430535081774, 0.886356289498508, 0.0, -0.01600000075995922, 0.9920000471174717, 0.0, 0.0, 0.0, 0.0, 0.0, 1.7400587821695173E9, 0.0, 2025-02-20 13:39:42.169
89.0, -41.62321655685082, 601.8134811697528, 13.121438994538039, -152.85719098895788, 0.0, -0.01600000075995922, 0.9920000471174717, 0.0, 0.0, 0.0, 0.0, 0.0, 1.7400587821992278E9, 0.0, 2025-02-20 13:39:42.199
89.0, 191.49035753123462, 840.622922890354, 15.372858767863363, 27.865994569845498, 0.0, -0.01600000075995922, 0.9920000471174717, 0.0, 0.0, 0.0, 0.0, 0.0, 1.7400587821994135E9, 0.0, 2025-02-20 13:39:42.199
90.0, 144.70420908555388, 793.7395370458253, 14.823093474376947, 176.25400511175394, 0.0, -0.01600000075995922, 0.9920000471174717, 0.0, 0.0, 0.0, 0.0, 0.0, 1.740058782199666E9, 0.0, 2025-02-20 13:39:42.199
90.0, 387.072165613994, 557.9930733889341, 13.413151191081852, -3.0741977635771036, 0.0, -0.01600000075995922, 0.9920000471174717, 0.0, 0.0, 0.0, 0.0, 0.0, 1.7400587821998208E9, 0.0, 2025-02-20 13:39:42.199
91.0, 449.56215397361666, 610.591026365757, 13.90307808527723, -157.49840683396906, 0.0, -0.01600000075995922, 0.9920000471174717, 0.0, 0.0, 0.0, 0.0, 0.0, 1.740058782199931E9, 0.0, 2025-02-20 13:39:42.199
91.0, 679.167701903265, 842.1562818721868, 13.86941898567602, 24.97879180405289, 0.0, -0.01600000075995922, 0.9920000471174717, 0.0, 0.0, 0.0, 0.0, 0.0, 1.7400587822000165E9, 0.0, 2025-02-20 13:39:42.200
92.0, 636.738536905963, 801.6681249518879, 12.732489399146289, 172.54776425566524, -0.01600000075995922, -0.01600000075995922, 0.9920000471174717, 0.0, 0.0, 0.0, 0.0, 0.0, 1.7400587822007735E9, 0.0, 2025-02-20 13:39:42.200
92.0, 871.0170898302458, 565.8506031958386, 12.893305097240955, -6.952474017627537, -0.01600000075995922, -0.01600000075995922, 0.9920000471174717, 0.0, 0.0, 0.0, 0.0, 0.0, 1.740058782200985E9, 0.0, 2025-02-20 13:39:42.200
93.0, 919.1084633604623, 608.7771748872474, 6.853366668801755, -156.53351264540106, -0.01600000075995922, -0.01600000075995922, 0.9920000471174717, 0.0, 0.0, 0.0, 0.0, 0.0, 1.740058782229428E9, 0.0, 2025-02-20 13:39:42.229
93.0, 1141.7465776726604, 834.3735500643961, 16.147018058691174, 23.976498615927994, -0.01600000075995922, -0.01600000075995922, 0.9920000471174717, 0.0, 0.0, 0.0, 0.0, 0.0, 1.740058782229711E9, 0.0, 2025-02-20 13:39:42.229
94.0, 1092.7912872526795, 816.2275554793887, 12.392158503178507, 178.09029598999768, -0.01600000075995922, -0.01600000075995922, 0.9920000471174717, 0.0, 0.0, 0.0, 0.0, 0.0, 1.7400587822299988E9, 0.0, 2025-02-20 13:39:42.229
94.0, 851.1806604652666, 588.9033465227112, 12.986802596133202, -3.107856863178313, -0.01600000075995922, -0.01600000075995922, 0.9920000471174717, 0.0, 0.0, 0.0, 0.0, 0.0, 1.7400587822302384E9, 0.0, 2025-02-20 13:39:42.230
95.0, 900.6258777794428, 615.3930579088628, 6.879545968491584, -151.23781430814415, -0.01600000075995922, -0.01600000075995922, 0.9920000471174717, 0.0, 0.0, 0.0, 0.0, 0.0, 1.7400587822590656E9, 0.0, 2025-02-20 13:39:42.259
95.0, 1145.5949347270653, 839.6991676012985, 10.862539421301335, 32.22297801822424, -0.01600000075995922, -0.01600000075995922, 0.9920000471174717, 0.0, 0.0, 0.0, 0.0, 0.0, 1.7400587822593086E9, 0.0, 2025-02-20 13:39:42.259
96.0, 1096.5386670082808, 800.4040387668647, 11.756375510711223, 178.87941488064826, -0.01600000075995922, -0.01600000075995922, 0.9920000471174717, 0.0, 0.0, 0.0, 0.0, 0.0, 1.740058782259798E9, 0.0, 2025-02-20 13:39:42.259
96.0, 862.7631306280382, 575.9071941766888, 11.270188516471535, -7.7453328082337976, -0.01600000075995922, -0.01600000075995922, 0.9920000471174717, 0.0, 0.0, 0.0, 0.0, 0.0, 1.7400587822601109E9, 0.0, 2025-02-20 13:39:42.260
97.0, 915.3386442051269, 624.4810148011893, 10.103339730296284, -155.2208077609539, -0.01600000075995922, -0.01600000075995922, 0.9920000471174717, 0.0, 0.0, 0.0, 0.0, 0.0, 1.7400587822603755E9, 0.0, 2025-02-20 13:39:42.260
97.0, 1144.0092171458527, 832.3203449887224, 14.198530181776732, 21.77743744198233, -0.01600000075995922, -0.01600000075995922, 0.9920000471174717, 0.0, 0.0, 0.0, 0.0, 0.0, 1.740058782260604E9, 0.0, 2025-02-20 13:39:42.260
98.0, 1113.6113103060052, 806.6160125932656, 12.70257019950077, 168.08980350848287, -0.01600000075995922, -0.01600000075995922, 0.9920000471174717, 0.0, 0.0, 0.0, 0.0, 0.0, 1.7400587822609446E9, 0.0, 2025-02-20 13:39:42.260
98.0, 894.4737423523329, 590.148733207956, 12.496875701937824, -16.96044629905373, -0.01600000075995922, -0.01600000075995922, 0.9920000471174717, 0.0, 0.0, 0.0, 0.0, 0.0, 1.7400587822611392E9, 0.0, 2025-02-20 13:39:42.261
99.0, 926.7378592700697, 612.8835850385949, 8.016475555021316, -162.54727177415043, -0.01600000075995922, -0.01600000075995922, 0.9920000471174717, 0.0, 0.0, 0.0, 0.0, 0.0, 1.740058782289348E9, 0.0, 2025-02-20 13:39:42.289
99.0, 1155.2513564126566, 832.3652237881906, 11.554420913103968, 26.94971908070147, -0.01600000075995922, -0.01600000075995922, 0.9920000471174717, 0.0, 0.0, 0.0, 0.0, 0.0, 1.7400587822899795E9, 0.0, 2025-02-20 13:39:42.289
100.0, 1117.4821067601442, 801.2380364569835, 17.44850324327126, 160.5165060982108, -0.01600000075995922, -0.01600000075995922, 0.9920000471174717, 0.0, 0.0, 0.0, 0.0, 0.0, 1.7400587822905505E9, 0.0, 2025-02-20 13:39:42.290
100.0, 893.0787596688606, 580.4885716224089, 13.222416293341666, -24.055036514997482, -0.01600000075995922, -0.01600000075995922, 0.9920000471174717, 0.0, 0.0, 0.0, 0.0, 0.0, 1.7400587822908065E9, 0.0, 2025-02-20 13:39:42.290
0.0, 465.01168069057167, 121.00633301632479, 5.9370911796577275, -170.73578272713348, -0.01600000075995922, -0.01600000075995922, 0.9920000471174717, 0.0, 0.0, 0.0, 0.0, 0.0, 1.740058782291003E9, 0.0, 2025-02-20 13:39:42.291
1.0, 689.9872324750759, 337.1931199049577, 16.74166215164587, 16.831419750582427, -0.01600000075995922, -0.01600000075995922, 0.9920000471174717, 0.0, 0.0, 0.0, 0.0, 0.0, 1.7400587823187585E9, 0.0, 2025-02-20 13:39:42.318
1.0, 648.6164591652341, 321.1190298954025, 16.004901860374957, 161.92831833148375, -0.01600000075995922, -0.01600000075995922, 0.9920000471174717, 0.0, 0.0, 0.0, 0.0, 0.0, 1.7400587823191948E9, 0.0, 2025-02-20 13:39:42.319
2.0, 423.8727811779827, 107.52773357601836, 11.920931108761579, -19.224955722223967, 0.0, -0.01600000075995922, 0.9920000471174717, 0.0, 0.0, 0.0, 0.0, 0.0, 1.7400587823194256E9, 0.0, 2025-02-20 13:39:42.319
2.0, 458.78474726434797, 147.9373525972478, 11.285148116294295, -159.29916866263375, 0.0, -0.01600000075995922, 0.9920000471174717, 0.0, 0.0, 0.0, 0.0, 0.0, 1.740058782319657E9, 0.0, 2025-02-20 13:39:42.319
3.0, 661.4817150128074, 357.1791452681646, 12.448257002513856, 25.077899152878672, 0.0, -0.01600000075995922, 0.9920000471174717, 0.0, 0.0, 0.0, 0.0, 0.0, 1.740058782320097E9, 0.0, 2025-02-20 13:39:42.320
3.0, 620.5634695976041, 329.1224158005789, 10.877499021124095, 160.08080775337294, 0.0, -0.01600000075995922, 0.9920000471174717, 0.0, 0.0, 0.0, 0.0, 0.0, 1.7400587823203075E9, 0.0, 2025-02-20 13:39:42.320
4.0, 397.8131582867354, 122.95108099328354, 14.628618676681072, -21.771827592048794, 0.0, -0.01600000075995922, 0.9920000471174717, 0.0, 0.0, 0.0, 0.0, 0.0, 1.7400587823489892E9, 0.0, 2025-02-20 13:39:42.348
4.0, 436.7230774257332, 155.4956904076971, 9.654551735613495, -156.11277390038595, 0.0, -0.01600000075995922, 0.9920000471174717, 0.0, 0.0, 0.0, 0.0, 0.0, 1.7400587823491333E9, 0.0, 2025-02-20 13:39:42.349
5.0, 669.5337196174078, 370.7400225074962, 13.88437858549878, 26.588818734977394, 0.0, -0.01600000075995922, 0.9920000471174717, 0.0, 0.0, 0.0, 0.0, 0.0, 1.7400587823493493E9, 0.0, 2025-02-20 13:39:42.349
5.0, 632.9088793513365, 334.1189221413806, 11.262708716560155, 162.73239682195708, 0.0, -0.01600000075995922, 0.9920000471174717, 0.0, 0.0, 0.0, 0.0, 0.0, 1.7400587823495905E9, 0.0, 2025-02-20 13:39:42.349
6.0, 427.93057262990624, 129.3051710180007, 10.855059621389955, -17.50086184265092, 0.0, -0.01600000075995922, 0.9920000471174717, 0.0, 0.0, 0.0, 0.0, 0.0, 1.7400587823499439E9, 0.0, 2025-02-20 13:39:42.349
6.0, 454.93639020994306, 152.88524023862556, 7.403131962288171, -152.5673487423919, 0.0, -0.01600000075995922, 0.9920000471174717, 0.0, 0.0, 0.0, 0.0, 0.0, 1.7400587823502855E9, 0.0, 2025-02-20 13:39:42.350
7.0, 664.1333040813915, 355.3091952903196, 14.176090782042593, 29.91732969554141, 0.0, -0.01600000075995922, 0.9920000471174717, 0.0, 0.0, 0.0, 0.0, 0.0, 1.7400587823789587E9, 0.0, 2025-02-20 13:39:42.378
7.0, 638.414012086112, 334.24607873987406, 17.47468254296109, 170.07382043497637, 0.0, -0.01600000075995922, 0.9920000471174717, 0.0, 0.0, 0.0, 0.0, 0.0, 1.7400587823793092E9, 0.0, 2025-02-20 13:39:42.379
8.0, 404.3766827089712, 135.8238166407682, 7.691104258876294, -22.871358179021627, 0.0, -0.01600000075995922, 0.9920000471174717, 0.0, 0.0, 0.0, 0.0, 0.0, 1.7400587823794785E9, 0.0, 2025-02-20 13:39:42.379
8.0, 442.86025325302035, 174.29242758499458, 8.158591753337532, -163.9104653079994, 0.0, -0.01600000075995922, 0.9920000471174717, 0.0, 0.0, 0.0, 0.0, 0.0, 1.7400587823796575E9, 0.0, 2025-02-20 13:39:42.379
9.0, 650.0712802479975, 356.33766777813435, 11.995729107875377, 28.01746051805094, 0.0, -0.01600000075995922, 0.9920000471174717, 0.0, 0.0, 0.0, 0.0, 0.0, 1.7400587823802092E9, 0.0, 2025-02-20 13:39:42.380
9.0, 618.5177443218417, 337.0771830063313, 13.315913792233914, 166.30400127964094, 0.0, -0.01600000075995922, 0.9920000471174717, 0.0, 0.0, 0.0, 0.0, 0.0, 1.7400587823803737E9, 0.0, 2025-02-20 13:39:42.380
10.0, 413.39358150213957, 140.1957596889697, 8.053874554578215, -14.66601767623797, 0.0, -0.01600000075995922, 1.008000047877431, 0.0, 0.0, 0.0, 0.0, 0.0, 1.7400587824093711E9, 0.0, 2025-02-20 13:39:42.409
10.0, 455.72176920063794, 172.60199280502275, 10.166918029543012, -150.24487086990848, 0.0, -0.01600000075995922, 1.008000047877431, 0.0, 0.0, 0.0, 0.0, 0.0, 1.7400587824097595E9, 0.0, 2025-02-20 13:39:42.409
11.0, 643.9677635203116, 359.5876408396289, 11.939630608540028, 39.5924508809112, 0.0, -0.01600000075995922, 1.008000047877431, 0.0, 0.0, 0.0, 0.0, 0.0, 1.7400587824099958E9, 0.0, 2025-02-20 13:39:42.409
11.0, 621.5508031859063, 352.4556516241282, 15.675790664274246, 178.9560828297399, 0.0, -0.01600000075995922, 1.008000047877431, 0.0, 0.0, 0.0, 0.0, 0.0, 1.7400587824101963E9, 0.0, 2025-02-20 13:39:42.410
12.0, 418.36764844320714, 148.5319966902025, 13.686163887847215, -9.250642540398985, 0.0, -0.01600000075995922, 1.008000047877431, 0.0, 0.0, 0.0, 0.0, 0.0, 1.740058782410325E9, 0.0, 2025-02-20 13:39:42.410
12.0, 446.5477946093306, 171.64083851641044, 10.26789532834664, -144.37696783943102, 0.0, -0.01600000075995922, 1.008000047877431, 0.0, 0.0, 0.0, 0.0, 0.0, 1.7400587824104912E9, 0.0, 2025-02-20 13:39:42.410
13.0, 646.4996757903136, 355.18203869182616, 12.736229299101979, 44.05415152804926, 0.0, -0.01600000075995922, 1.008000047877431, 0.0, 0.0, 0.0, 0.0, 0.0, 1.7400587824389236E9, 0.0, 2025-02-20 13:39:42.438
13.0, 630.5602221791632, 348.48013797122985, 14.105032682884485, 176.8093802551739, 0.0, -0.01600000075995922, 1.008000047877431, 0.0, 0.0, 0.0, 0.0, 0.0, 1.740058782439112E9, 0.0, 2025-02-20 13:39:42.439
14.0, 415.32710977923125, 148.21036529401317, 11.771335110533983, -19.610165417660028, 0.0, -0.01600000075995922, 1.008000047877431, 0.0, 0.0, 0.0, 0.0, 0.0, 1.7400587824393232E9, 0.0, 2025-02-20 13:39:42.439
14.0, 450.33631326444447, 167.5381682650186, 12.089226606767625, -144.48916483810171, 0.0, -0.01600000075995922, 1.008000047877431, 0.0, 0.0, 0.0, 0.0, 0.0, 1.7400587824395564E9, 0.0, 2025-02-20 13:39:42.439
15.0, 636.424385309685, 357.0220694700256, 16.68556365231052, 39.420415482949466, 0.0, -0.01600000075995922, 1.008000047877431, 0.0, 0.0, 0.0, 0.0, 0.0, 1.7400587824400504E9, 0.0, 2025-02-20 13:39:42.440
15.0, 617.5304107335396, 349.28795636165887, 11.412304714787751, 170.7993610263802, 0.0, -0.01600000075995922, 1.008000047877431, 0.0, 0.0, 0.0, 0.0, 0.0, 1.7400587824401913E9, 0.0, 2025-02-20 13:39:42.440
16.0, 415.4617461776361, 161.03448224207386, 9.84902653330937, -19.673743716906756, 0.0, -0.01600000075995922, 1.008000047877431, 0.0, 0.0, 0.0, 0.0, 0.0, 1.740058782468864E9, 0.0, 2025-02-20 13:39:42.468
16.0, 461.8813844276592, 186.4433625410311, 6.475636773277074, -148.55443608993664, 0.0, -0.01600000075995922, 1.008000047877431, 0.0, 0.0, 0.0, 0.0, 0.0, 1.7400587824690971E9, 0.0, 2025-02-20 13:39:42.469
17.0, 640.5270555610768, 361.9026389122009, 9.42641783831641, 36.02458632318303, 0.0, -0.01600000075995922, 1.008000047877431, 0.0, 0.0, 0.0, 0.0, 0.0, 1.740058782469308E9, 0.0, 2025-02-20 13:39:42.469
17.0, 602.0696643167175, 347.6872791806236, 16.33401305647567, 163.81696780910715, 0.0, -0.01600000075995922, 1.008000047877431, 0.0, 0.0, 0.0, 0.0, 0.0, 1.7400587824695017E9, 0.0, 2025-02-20 13:39:42.469
18.0, 416.2359054684639, 172.7628085031174, 9.48999613756314, -13.132658694405109, 0.0, -0.01600000075995922, 1.008000047877431, 0.0, 0.0, 0.0, 0.0, 0.0, 1.74005878246984E9, 0.0, 2025-02-20 13:39:42.469
18.0, 442.6246395558119, 182.80069998418912, 10.492289325688034, -152.33547494513914, 0.0, -0.01600000075995922, 1.008000047877431, 0.0, 0.0, 0.0, 0.0, 0.0, 1.7400587824699256E9, 0.0, 2025-02-20 13:39:42.469
19.0, 630.6798989777453, 365.5378216691315, 11.995729107875377, 33.17478255694732, 0.0, -0.01600000075995922, 1.008000047877431, 0.0, 0.0, 0.0, 0.0, 0.0, 1.7400587824989269E9, 0.0, 2025-02-20 13:39:42.498
19.0, 603.8274172958918, 355.8290413841605, 13.372012291569263, 168.95933024818078, 0.0, -0.01600000075995922, 1.008000047877431, 0.0, 0.0, 0.0, 0.0, 0.0, 1.7400587824990528E9, 0.0, 2025-02-20 13:39:42.499
20.0, 408.43447416089475, 165.37276619067416, 6.62897267146036, -14.430403979029506, 0.0, -0.01600000075995922, 0.9920000471174717, 0.0, 0.0, 0.0, 0.0, 0.0, 1.7400587825000627E9, 0.0, 2025-02-20 13:39:42.500
20.0, 422.14494739845395, 179.6255249218084, 14.153651382308453, -151.6473333532922, 0.0, -0.01600000075995922, 0.9920000471174717, 0.0, 0.0, 0.0, 0.0, 0.0, 1.7400587825002656E9, 0.0, 2025-02-20 13:39:42.500
21.0, 611.471772805322, 360.29448193125427, 12.104186206590384, 38.249826796818525, 0.0, -0.01600000075995922, 0.9920000471174717, 0.0, 0.0, 0.0, 0.0, 0.0, 1.7400587825003977E9, 0.0, 2025-02-20 13:39:42.500
21.0, 581.8218459566124, 350.8437547432259, 14.6547979763709, 163.4280182137154, 0.0, -0.01600000075995922, 0.9920000471174717, 0.0, 0.0, 0.0, 0.0, 0.0, 1.740058782500496E9, 0.0, 2025-02-20 13:39:42.500
22.0, 393.2617000406608, 182.96899548219517, 11.023355119396001, -22.654443981591612, 0.0, -0.01600000075995922, 0.9920000471174717, 0.0, 0.0, 0.0, 0.0, 0.0, 1.7400587825292845E9, 0.0, 2025-02-20 13:39:42.529
22.0, 413.5394376004115, 187.45687542902306, 12.003208907786757, -151.17610595887527, 0.0, -0.01600000075995922, 0.9920000471174717, 0.0, 0.0, 0.0, 0.0, 0.0, 1.7400587825293903E9, 0.0, 2025-02-20 13:39:42.529
23.0, 593.4304954190738, 365.9080717647448, 12.410858002956957, 40.4825470703654, 0.0, -0.01600000075995922, 0.9920000471174717, 0.0, 0.0, 0.0, 0.0, 0.0, 1.7400587825299125E9, 0.0, 2025-02-20 13:39:42.529
23.0, 569.8055473989807, 350.9783911416307, 14.101292782928795, 167.2053171689622, 0.0, -0.01600000075995922, 0.9920000471174717, 0.0, 0.0, 0.0, 0.0, 0.0, 1.7400587825300345E9, 0.0, 2025-02-20 13:39:42.530
24.0, 396.90436259750277, 194.67488234350458, 10.118299330119044, -23.07705267658457, 0.0, -0.01600000075995922, 0.9920000471174717, 0.0, 0.0, 0.0, 0.0, 0.0, 1.7400587825302367E9, 0.0, 2025-02-20 13:39:42.530
24.0, 420.8584218136966, 178.25859148800373, 10.27163522830233, -146.789203310851, 0.0, -0.01600000075995922, 0.9920000471174717, 0.0, 0.0, 0.0, 0.0, 0.0, 1.7400587825303133E9, 0.0, 2025-02-20 13:39:42.530
25.0, 602.462353812065, 361.35848346864805, 13.211196593474597, 47.73047318449244, 0.0, -0.01600000075995922, 0.9920000471174717, 0.0, 0.0, 0.0, 0.0, 0.0, 1.7400587825589068E9, 0.0, 2025-02-20 13:39:42.558
25.0, 594.3953896076418, 350.8456246932037, 14.127472082618624, 161.1317196409218, 0.0, -0.01600000075995922, 0.9920000471174717, 0.0, 0.0, 0.0, 0.0, 0.0, 1.7400587825590777E9, 0.0, 2025-02-20 13:39:42.559
26.0, 432.0257630813867, 181.91995354462415, 8.117452853824943, -25.025540553499013, 0.0, -0.01600000075995922, 0.9920000471174717, 0.0, 0.0, 0.0, 0.0, 0.0, 1.740058782559394E9, 0.0, 2025-02-20 13:39:42.559
26.0, 444.86483962927014, 189.80740255117416, 5.731396682094783, -148.47963809082285, 0.0, -0.01600000075995922, 0.9920000471174717, 0.0, 0.0, 0.0, 0.0, 0.0, 1.7400587825596426E9, 0.0, 2025-02-20 13:39:42.559
27.0, 627.4299259162508, 365.4536739201285, 13.394451691303402, 39.3717967835255, 0.0, -0.01600000075995922, 0.9920000471174717, 0.0, 0.0, 0.0, 0.0, 0.0, 1.7400587825600517E9, 0.0, 2025-02-20 13:39:42.560
27.0, 610.9668863113038, 350.35943769896403, 16.184417058248073, 169.45673694228753, 0.0, -0.01600000075995922, 0.9920000471174717, 0.0, 0.0, 0.0, 0.0, 0.0, 1.7400587825602603E9, 0.0, 2025-02-20 13:39:42.560
28.0, 443.5446549449116, 199.07861454132944, 9.134705641772598, -19.86821851460263, 0.0, -0.01600000075995922, 0.9920000471174717, 0.0, 0.0, 0.0, 0.0, 0.0, 1.7400587825892775E9, 0.0, 2025-02-20 13:39:42.589
28.0, 453.13001853134483, 196.77296621864662, 13.233635993208736, -147.42872620327398, 0.0, -0.01600000075995922, 0.9920000471174717, 0.0, 0.0, 0.0, 0.0, 0.0, 1.740058782589764E9, 0.0, 2025-02-20 13:39:42.589
29.0, 621.5508031859063, 358.802261848934, 13.832019986119121, 49.44334736419842, 0.0, -0.01600000075995922, 0.9920000471174717, 0.0, 0.0, 0.0, 0.0, 0.0, 1.740058782589894E9, 0.0, 2025-02-20 13:39:42.589
29.0, 605.6487485743128, 364.91138842655346, 13.009241995867342, 175.541554170195, 0.0, -0.01600000075995922, 0.9920000471174717, 0.0, 0.0, 0.0, 0.0, 0.0, 1.7400587825903327E9, 0.0, 2025-02-20 13:39:42.590
30.0, 455.87136519886553, 202.8409538967535, 9.665771435480565, -19.14267792319879, 0.0, -0.01600000075995922, 1.008000047877431, 0.0, 0.0, 0.0, 0.0, 0.0, 1.7400587825906355E9, 0.0, 2025-02-20 13:39:42.590
30.0, 462.9584756148979, 195.45278153428808, 10.144478629808873, -150.95919176144525, 0.0, -0.01600000075995922, 1.008000047877431, 0.0, 0.0, 0.0, 0.0, 0.0, 1.7400587825907536E9, 0.0, 2025-02-20 13:39:42.590
31.0, 635.2126577240415, 361.2892953194678, 14.482762578409165, 52.62226232653484, 0.0, -0.01600000075995922, 1.008000047877431, 0.0, 0.0, 0.0, 0.0, 0.0, 1.7400587826190877E9, 0.0, 2025-02-20 13:39:42.619
31.0, 623.9518189574592, 360.48147692903876, 13.727302787359804, 188.2572140195407, 0.0, -0.01600000075995922, 1.008000047877431, 0.0, 0.0, 0.0, 0.0, 0.0, 1.7400587826192794E9, 0.0, 2025-02-20 13:39:42.619
32.0, 462.173096624203, 201.16734866658226, 9.609672936145216, -6.0979068777523935, 0.0, -0.01600000075995922, 1.008000047877431, 0.0, 0.0, 0.0, 0.0, 0.0, 1.740058782619511E9, 0.0, 2025-02-20 13:39:42.619
32.0, 464.1889027003199, 197.06654836516827, 9.07486724248156, -141.8226161696948, 0.0, -0.01600000075995922, 1.008000047877431, 0.0, 0.0, 0.0, 0.0, 0.0, 1.7400587826198063E9, 0.0, 2025-02-20 13:39:42.619
33.0, 635.7960821171291, 354.6752822478302, 12.448257002513856, 48.19422077899799, 0.0, -0.01600000075995922, 1.008000047877431, 0.0, 0.0, 0.0, 0.0, 0.0, 1.74005878262007E9, 0.0, 2025-02-20 13:39:42.620
33.0, 616.8198297419585, 366.6560517558828, 12.6913504996337, 168.55168115301058, 0.0, -0.01600000075995922, 1.008000047877431, 0.0, 0.0, 0.0, 0.0, 0.0, 1.7400587826202593E9, 0.0, 2025-02-20 13:39:42.620
34.0, 451.41340445168316, 203.96105393348262, 10.903678320813924, -26.472881836351007, 0.0, -0.01600000075995922, 1.008000047877431, 0.0, 0.0, 0.0, 0.0, 0.0, 1.740058782648872E9, 0.0, 2025-02-20 13:39:42.648
34.0, 473.2282408932224, 198.52510934788734, 7.964116955641657, -136.07438993779942, 0.0, -0.01600000075995922, 1.008000047877431, 0.0, 0.0, 0.0, 0.0, 0.0, 1.74005878264907E9, 0.0, 2025-02-20 13:39:42.649
35.0, 626.0835619322024, 343.4742818805389, 12.889565197285265, 50.348403153475374, 0.0, -0.01600000075995922, 1.008000047877431, 0.0, 0.0, 0.0, 0.0, 0.0, 1.740058782649246E9, 0.0, 2025-02-20 13:39:42.649
35.0, 608.3639159421436, 343.0741125852801, 11.517021913547069, 169.19868384534493, 0.0, -0.01600000075995922, 1.008000047877431, 0.0, 0.0, 0.0, 0.0, 0.0, 1.7400587826493883E9, 0.0, 2025-02-20 13:39:42.649
36.0, 461.45877573266625, 201.47215051297098, 11.535721413325518, -32.93916885973886, 0.0, -0.01600000075995922, 1.008000047877431, 0.0, 0.0, 0.0, 0.0, 0.0, 1.7400587826499352E9, 0.0, 2025-02-20 13:39:42.649
36.0, 479.09614392369986, 201.9134587077424, 10.174397829454392, -152.0549824484624, 0.0, -0.01600000075995922, 1.008000047877431, 0.0, 0.0, 0.0, 0.0, 0.0, 1.7400587826501515E9, 0.0, 2025-02-20 13:39:42.650
37.0, 640.1418458656408, 346.59709834354, 12.515575201716274, 49.4134281645529, 0.0, -0.01600000075995922, 1.008000047877431, 0.0, 0.0, 0.0, 0.0, 0.0, 1.7400587826786623E9, 0.0, 2025-02-20 13:39:42.678
37.0, 644.070610769093, 343.31346618244424, 17.815013438928872, 162.8707731203176, 0.0, -0.01600000075995922, 1.008000047877431, 0.0, 0.0, 0.0, 0.0, 0.0, 1.7400587826789532E9, 0.0, 2025-02-20 13:39:42.678
38.0, 518.6586756049655, 202.26874920353293, 9.400238538626581, -33.87788374861702, 0.0, -0.01600000075995922, 1.008000047877431, 0.0, 0.0, 0.0, 0.0, 0.0, 1.7400587826791496E9, 0.0, 2025-02-20 13:39:42.679
38.0, 493.83882954902947, 186.05067304568365, 10.29407462803647, -149.39591357996687, 0.0, -0.01600000075995922, 1.008000047877431, 0.0, 0.0, 0.0, 0.0, 0.0, 1.7400587826793354E9, 0.0, 2025-02-20 13:39:42.679
39.0, 618.7009994196706, 309.79461282957345, 16.838899550493807, 43.62406303314492, 0.0, -0.01600000075995922, 1.008000047877431, 0.0, 0.0, 0.0, 0.0, 0.0, 1.7400587826801538E9, 0.0, 2025-02-20 13:39:42.680
39.0, 617.9044007291086, 362.7160671525635, 10.858799521345645, 160.30146185075864, 0.0, -0.01600000075995922, 1.008000047877431, 0.0, 0.0, 0.0, 0.0, 0.0, 1.7400587826803513E9, 0.0, 2025-02-20 13:39:42.680
40.0, 454.41280421614647, 231.91867605224252, 9.418938038405031, -39.27455938467756, 0.0, -0.01600000075995922, 0.9920000471174717, 0.0, 0.0, 0.0, 0.0, 0.0, 1.7400587827090328E9, 0.0, 2025-02-20 13:39:42.709
40.0, 437.6000839653425, 256.33274296298623, 6.542954972479492, -157.8331278800033, 0.0, -0.01600000075995922, 0.9920000471174717, 0.0, 0.0, 0.0, 0.0, 0.0, 1.7400587827094011E9, 0.0, 2025-02-20 13:39:42.709
41.0, 567.0660706814378, 431.8855168330483, 13.132658694405109, 41.79151205485687, 0.0, -0.01600000075995922, 0.9920000471174717, 0.0, 0.0, 0.0, 0.0, 0.0, 1.7400587827096663E9, 0.0, 2025-02-20 13:39:42.709
41.0, 537.4086640328169, 463.2277484117076, 14.643578276503831, 163.7309501101263, 0.0, -0.01600000075995922, 0.9920000471174717, 0.0, 0.0, 0.0, 0.0, 0.0, 1.7400587827099092E9, 0.0, 2025-02-20 13:39:42.709
42.0, 360.0420386842452, 353.42241576267406, 8.21843015262857, -42.89478254178539, 0.0, -0.01600000075995922, 0.9920000471174717, 0.0, 0.0, 0.0, 0.0, 0.0, 1.740058782710272E9, 0.0, 2025-02-20 13:39:42.710
42.0, 319.7764058113098, 334.58266973588616, 8.304447851609439, -155.424632308539, 0.0, -0.01600000075995922, 0.9920000471174717, 0.0, 0.0, 0.0, 0.0, 0.0, 1.7400587827104907E9, 0.0, 2025-02-20 13:39:42.710
43.0, 445.4164748727344, 476.7979754009284, 12.994282396044582, 39.62610998051241, 0.0, -0.01600000075995922, 0.9920000471174717, 0.0, 0.0, 0.0, 0.0, 0.0, 1.7400587827387896E9, 0.0, 2025-02-20 13:39:42.738
43.0, 424.4019770217128, 485.02388535346836, 16.71548285195604, 156.8383144917898, 0.0, -0.01600000075995922, 0.9920000471174717, 0.0, 0.0, 0.0, 0.0, 0.0, 1.740058782738972E9, 0.0, 2025-02-20 13:39:42.738
44.0, 247.73845286481082, 320.99748314684257, 10.956036920193583, -36.08816462242976, 0.0, -0.01600000075995922, 0.9920000471174717, 0.0, 0.0, 0.0, 0.0, 0.0, 1.7400587827391317E9, 0.0, 2025-02-20 13:39:42.739
44.0, 271.4531584838405, 321.281715543475, 10.309034227859229, -159.29168886272237, 0.0, -0.01600000075995922, 0.9920000471174717, 0.0, 0.0, 0.0, 0.0, 0.0, 1.7400587827393312E9, 0.0, 2025-02-20 13:39:42.739
45.0, 410.31377388862893, 462.5209073200822, 12.882085397373885, 46.9301345939748, 0.0, -0.01600000075995922, 0.9920000471174717, 0.0, 0.0, 0.0, 0.0, 0.0, 1.740058782739977E9, 0.0, 2025-02-20 13:39:42.739
45.0, 426.5019308468327, 472.44473185250536, 12.459476702380925, 167.8037011618726, 0.0, -0.01600000075995922, 0.9920000471174717, 0.0, 0.0, 0.0, 0.0, 0.0, 1.7400587827401392E9, 0.0, 2025-02-20 13:39:42.740
46.0, 301.85293527366593, 347.41052658390254, 8.117452853824943, -25.825879144016653, 0.0, -0.01600000075995922, 0.9920000471174717, 0.0, 0.0, 0.0, 0.0, 0.0, 1.74005878276897E9, 0.0, 2025-02-20 13:39:42.768
46.0, 308.5361364944838, 322.70287752663717, 10.731642922852188, -145.26706402888522, 0.0, -0.01600000075995922, 0.9920000471174717, 0.0, 0.0, 0.0, 0.0, 0.0, 1.7400587827691553E9, 0.0, 2025-02-20 13:39:42.769
47.0, 457.8535121753812, 448.4027849873528, 13.764701786916703, 56.739892177749425, 0.0, -0.01600000075995922, 0.9920000471174717, 0.0, 0.0, 0.0, 0.0, 0.0, 1.7400587827697797E9, 0.0, 2025-02-20 13:39:42.769
47.0, 492.9618230094202, 452.2791912914254, 10.436190826352686, 161.49075003666803, 0.0, -0.01600000075995922, 0.9920000471174717, 0.0, 0.0, 0.0, 0.0, 0.0, 1.7400587827700088E9, 0.0, 2025-02-20 13:39:42.770
48.0, 374.61081896163523, 326.29131153412163, 13.45802999055013, -39.33065788401291, 0.0, -0.01600000075995922, 0.9920000471174717, 0.0, 0.0, 0.0, 0.0, 0.0, 1.7400587827701397E9, 0.0, 2025-02-20 13:39:42.770
48.0, 383.2574676591903, 305.81348932674155, 13.330873392056674, -151.31822215719149, 0.0, -0.01600000075995922, 0.9920000471174717, 0.0, 0.0, 0.0, 0.0, 0.0, 1.7400587827702477E9, 0.0, 2025-02-20 13:39:42.770
49.0, 533.6743739270605, 423.95879887696356, 12.111666006501764, 54.93726039910689, 0.0, -0.01600000075995922, 0.9920000471174717, 0.0, 0.0, 0.0, 0.0, 0.0, 1.7400587827986784E9, 0.0, 2025-02-20 13:39:42.798
49.0, 557.2338736979291, 437.79455876303837, 12.459476702380925, 157.45539798447862, 0.0, -0.01600000075995922, 0.9920000471174717, 0.0, 0.0, 0.0, 0.0, 0.0, 1.740058782799034E9, 0.0, 2025-02-20 13:39:42.799
50.0, 435.8124117865227, 312.3714038990438, 10.043501331005245, -52.43152742879465, 0.0, -0.01600000075995922, 0.9920000471174717, 0.0, 0.0, 0.0, 0.0, 0.0, 1.740058782799544E9, 0.0, 2025-02-20 13:39:42.799
50.0, 447.02837175363675, 280.673881824594, 9.385278938803822, -157.11132718855515, 0.0, -0.01600000075995922, 0.9920000471174717, 0.0, 0.0, 0.0, 0.0, 0.0, 1.740058782799808E9, 0.0, 2025-02-20 13:39:42.799
51.0, 582.8297489946708, 400.0720578599721, 14.123732182662934, 43.848457030486315, 0.0, -0.01600000075995922, 0.9920000471174717, 0.0, 0.0, 0.0, 0.0, 0.0, 1.7400587828000443E9, 0.0, 2025-02-20 13:39:42.800
51.0, 600.9701337297447, 429.02075346698985, 10.754082322586328, 153.00491703720763, 0.0, -0.01600000075995922, 0.9920000471174717, 0.0, 0.0, 0.0, 0.0, 0.0, 1.7400587828002136E9, 0.0, 2025-02-20 13:39:42.800
52.0, 478.40052253194153, 296.78350088372827, 10.013582131359726, -43.500646334607154, -0.01600000075995922, -0.01600000075995922, 0.9920000471174717, 0.0, 0.0, 0.0, 0.0, 0.0, 1.7400587828288321E9, 0.0, 2025-02-20 13:39:42.828
52.0, 455.44314665393904, 269.94036895176396, 10.353913027327508, -159.27298936294392, -0.01600000075995922, -0.01600000075995922, 0.9920000471174717, 0.0, 0.0, 0.0, 0.0, 0.0, 1.7400587828290734E9, 0.0, 2025-02-20 13:39:42.829
53.0, 597.0189294265583, 380.57595939096063, 13.645024988334626, 46.702000696677715, -0.01600000075995922, -0.01600000075995922, 0.9920000471174717, 0.0, 0.0, 0.0, 0.0, 0.0, 1.740058782829172E9, 0.0, 2025-02-20 13:39:42.829
53.0, 612.5226846928708, 410.1417384906672, 13.125178894493729, 156.497983595822, -0.01600000075995922, -0.01600000075995922, 0.9920000471174717, 0.0, 0.0, 0.0, 0.0, 0.0, 1.740058782829298E9, 0.0, 2025-02-20 13:39:42.829
54.0, 497.9414998004213, 279.89037278387696, 12.567933801095933, -43.99057322880253, -0.01600000075995922, -0.01600000075995922, 0.9920000471174717, 0.0, 0.0, 0.0, 0.0, 0.0, 1.7400587828299177E9, 0.0, 2025-02-20 13:39:42.829
54.0, 484.5171289094724, 256.86941860662773, 8.517622149083763, -161.96197743108496, -0.01600000075995922, -0.01600000075995922, 0.9920000471174717, 0.0, 0.0, 0.0, 0.0, 0.0, 1.7400587828300087E9, 0.0, 2025-02-20 13:39:42.830
55.0, 610.1758974706754, 361.10978012159467, 14.093812983017415, 42.9658406409435, -0.01600000075995922, -0.01600000075995922, 0.9920000471174717, 0.0, 0.0, 0.0, 0.0, 0.0, 1.7400587828897216E9, 0.0, 2025-02-20 13:39:42.889
55.0, 627.4000067166053, 387.3881871602498, 12.867125797551125, 154.4260790203698, -0.01600000075995922, -0.01600000075995922, 0.9920000471174717, 0.0, 0.0, 0.0, 0.0, 0.0, 1.7400587828899384E9, 0.0, 2025-02-20 13:39:42.889
56.0, 523.8328271936625, 278.5103497002274, 10.68302422342822, -50.292304654140025, -0.01600000075995922, -0.01600000075995922, 0.9920000471174717, 0.0, 0.0, 0.0, 0.0, 0.0, 1.7400587828900807E9, 0.0, 2025-02-20 13:39:42.890
56.0, 485.2800685004331, 245.0288953469135, 10.312774127814919, -153.41256613237783, -0.01600000075995922, -0.01600000075995922, 0.9920000471174717, 0.0, 0.0, 0.0, 0.0, 0.0, 1.7400587828903265E9, 0.0, 2025-02-20 13:39:42.890
57.0, 600.8448470812291, 357.82240806054324, 14.632358576636761, 51.76956513663754, -0.01600000075995922, -0.01600000075995922, 0.9920000471174717, 0.0, 0.0, 0.0, 0.0, 0.0, 1.740058782890956E9, 0.0, 2025-02-20 13:39:42.890
57.0, 621.0945353913121, 403.11446647392586, 11.681577511597425, 167.38483236683533, -0.01600000075995922, -0.01600000075995922, 0.9920000471174717, 0.0, 0.0, 0.0, 0.0, 0.0, 1.7400587828912013E9, 0.0, 2025-02-20 13:39:42.891
58.0, 490.6374751869589, 289.07930697500706, 10.963516720104963, -35.048472434747964, -0.01600000075995922, -0.01600000075995922, 0.9920000471174717, 0.0, 0.0, 0.0, 0.0, 0.0, 1.7400587828914125E9, 0.0, 2025-02-20 13:39:42.891
58.0, 466.88350061839446, 254.27018813742325, 10.125779130030423, -135.8200767408125, -0.01600000075995922, -0.01600000075995922, 0.9920000471174717, 0.0, 0.0, 0.0, 0.0, 0.0, 1.7400587828915963E9, 0.0, 2025-02-20 13:39:42.891
59.0, 558.501699782908, 350.9896108414978, 14.826833374332637, 73.84993447503075, -0.01600000075995922, -0.01600000075995922, 0.9920000471174717, 0.0, 0.0, 0.0, 0.0, 0.0, 1.7400587828917792E9, 0.0, 2025-02-20 13:39:42.891
59.0, 589.8289717617445, 384.51594399427995, 12.193943805526942, 177.2880874495022, -0.01600000075995922, -0.01600000075995922, 0.9920000471174717, 0.0, 0.0, 0.0, 0.0, 0.0, 1.7400587828920124E9, 0.0, 2025-02-20 13:39:42.892
60.0, 469.86981073301286, 281.41251206584275, 12.220123105216771, -27.92396301915869, -0.01600000075995922, -0.01600000075995922, 0.9920000471174717, 0.0, 0.0, 0.0, 0.0, 0.0, 1.7400587828927612E9, 0.0, 2025-02-20 13:39:42.892
60.0, 445.46883347211406, 229.07448213594034, 10.69798382325098, -134.0810232614167, -0.01600000075995922, -0.01600000075995922, 0.9920000471174717, 0.0, 0.0, 0.0, 0.0, 0.0, 1.7400587828929944E9, 0.0, 2025-02-20 13:39:42.892
61.0, 566.8304569842294, 340.0578832710162, 7.612566359806806, 64.66474018385634, -0.01600000075995922, 0.0, 0.9920000471174717, 0.0, 0.0, 0.0, 0.0, 0.0, 1.7400587829189208E9, 0.0, 2025-02-20 13:39:42.918
61.0, 592.862030625809, 378.7078793630935, 12.882085397373885, 162.25368962762877, -0.01600000075995922, 0.0, 0.9920000471174717, 0.0, 0.0, 0.0, 0.0, 0.0, 1.7400587829192019E9, 0.0, 2025-02-20 13:39:42.919
62.0, 475.7040546638891, 276.93585181888193, 8.2820084518753, -39.55879178130999, 0.0, 0.0, 0.9920000471174717, 0.0, 0.0, 0.0, 0.0, 0.0, 1.740058782919364E9, 0.0, 2025-02-20 13:39:42.919
62.0, 461.9842316764407, 240.2792224031873, 12.545494401361793, -148.07198899565265, 0.0, 0.0, 0.9920000471174717, 0.0, 0.0, 0.0, 0.0, 0.0, 1.7400587829194505E9, 0.0, 2025-02-20 13:39:42.919
63.0, 569.6017228513956, 336.17960701696575, 16.012381660286337, 54.88864169968292, 0.0, 0.0, 0.9920000471174717, 0.0, 0.0, 0.0, 0.0, 0.0, 1.740058782919876E9, 0.0, 2025-02-20 13:39:42.919
63.0, 603.6105030984618, 382.50761771807447, 12.197683705482632, 148.37866079201922, 0.0, 0.0, 0.9920000471174717, 0.0, 0.0, 0.0, 0.0, 0.0, 1.740058782919964E9, 0.0, 2025-02-20 13:39:42.919
64.0, 505.1295875152573, 290.96795645263046, 9.47503653774038, -60.14320113742724, 0.0, 0.0, 0.9920000471174717, 0.0, 0.0, 0.0, 0.0, 0.0, 1.7400587829491594E9, 0.0, 2025-02-20 13:39:42.949
64.0, 468.0279100048356, 236.58420124696568, 13.001762195955962, -159.08599436515942, 0.0, 0.0, 0.9920000471174717, 0.0, 0.0, 0.0, 0.0, 0.0, 1.7400587829494755E9, 0.0, 2025-02-20 13:39:42.949
65.0, 567.847709772177, 332.46962626092136, 14.179830681998283, 46.739399696234614, 0.0, 0.0, 0.9920000471174717, 0.0, 0.0, 0.0, 0.0, 0.0, 1.740058782949752E9, 0.0, 2025-02-20 13:39:42.949
65.0, 591.1528963460587, 378.6480409638025, 13.749742187093943, 147.57832220150158, 0.0, 0.0, 0.9920000471174717, 0.0, 0.0, 0.0, 0.0, 0.0, 1.740058782949911E9, 0.0, 2025-02-20 13:39:42.949
66.0, 491.456513277255, 278.45425120089203, 11.307587516028434, -56.90818767575547, 0.0, 0.0, 0.9920000471174717, 0.0, 0.0, 0.0, 0.0, 0.0, 1.7400587829501667E9, 0.0, 2025-02-20 13:39:42.950
66.0, 464.3777676480822, 219.07398965442553, 12.448257002513856, -153.59208133025095, 0.0, 0.0, 0.9920000471174717, 0.0, 0.0, 0.0, 0.0, 0.0, 1.740058782950308E9, 0.0, 2025-02-20 13:39:42.950
67.0, 578.8542353417724, 317.13977634254843, 14.819353574421257, 51.5975297386758, 0.0, 0.0, 0.9920000471174717, 0.0, 0.0, 0.0, 0.0, 0.0, 1.7400587829789367E9, 0.0, 2025-02-20 13:39:42.978
67.0, 607.1147893569432, 347.3375985347666, 16.876298550050706, 161.3149747387506, 0.0, 0.0, 0.9920000471174717, 0.0, 0.0, 0.0, 0.0, 0.0, 1.7400587829790432E9, 0.0, 2025-02-20 13:39:42.979
68.0, 514.2736429069191, 260.6373678119853, 9.44885723805055, -51.118822544347495, 0.0, 0.0, 0.9920000471174717, 0.0, 0.0, 0.0, 0.0, 0.0, 1.7400587829791863E9, 0.0, 2025-02-20 13:39:42.979
68.0, 467.7324579083361, 208.53495157929137, 12.485656002070755, -138.9728124034591, 0.0, 0.0, 0.9920000471174717, 0.0, 0.0, 0.0, 0.0, 0.0, 1.7400587829793396E9, 0.0, 2025-02-20 13:39:42.979
69.0, 562.5557513348758, 292.9127044295892, 12.575413601007313, 65.58101567300037, 0.0, 0.0, 0.9920000471174717, 0.0, 0.0, 0.0, 0.0, 0.0, 1.740058782980056E9, 0.0, 2025-02-20 13:39:42.980
69.0, 592.4917805301957, 343.79591327672824, 12.122885706368834, 160.38373964978382, 0.0, 0.0, 0.9920000471174717, 0.0, 0.0, 0.0, 0.0, 0.0, 1.740058782980225E9, 0.0, 2025-02-20 13:39:42.980
70.0, 496.8943278128281, 262.1931661935523, 9.796667933929712, -46.04751820443198, 0.0, 0.0, 0.9920000471174717, 0.0, 0.0, 0.0, 0.0, 0.0, 1.7400587830090501E9, 0.0, 2025-02-20 13:39:43.009
70.0, 469.47899118764326, 208.53869147924706, 12.878345497418195, -132.02033838583156, 0.0, 0.0, 0.9920000471174717, 0.0, 0.0, 0.0, 0.0, 0.0, 1.7400587830092444E9, 0.0, 2025-02-20 13:39:43.009
71.0, 556.3512573083863, 306.60447816736996, 13.151358194183558, 77.49633693182841, 0.0, -0.01600000075995922, 0.9920000471174717, 0.0, 0.0, 0.0, 0.0, 0.0, 1.7400587830094173E9, 0.0, 2025-02-20 13:39:43.009
71.0, 592.3982830313034, 352.5584988729097, 12.433297402691096, 173.55940719367936, 0.0, -0.01600000075995922, 0.9920000471174717, 0.0, 0.0, 0.0, 0.0, 0.0, 1.7400587830095787E9, 0.0, 2025-02-20 13:39:43.009
72.0, 507.48572448734194, 273.8766136551276, 11.509542113635689, -33.31689875526354, 0.0, -0.01600000075995922, 0.9920000471174717, 0.0, 0.0, 0.0, 0.0, 0.0, 1.7400587830101752E9, 0.0, 2025-02-20 13:39:43.010
72.0, 467.9157130061649, 215.31913009891286, 10.484809525776654, -133.40784126939252, 0.0, -0.01600000075995922, 0.9920000471174717, 0.0, 0.0, 0.0, 0.0, 0.0, 1.7400587830103376E9, 0.0, 2025-02-20 13:39:43.010
73.0, 541.6384908827022, 305.86023807618767, 14.968949572648853, 74.68767206510529, 0.0, -0.01600000075995922, 0.9920000471174717, 0.0, 0.0, 0.0, 0.0, 0.0, 1.7400587830392208E9, 0.0, 2025-02-20 13:39:43.039
73.0, 591.6989217395894, 372.5258247363381, 15.582293165381998, 164.45275080157444, 0.0, -0.01600000075995922, 0.9920000471174717, 0.0, 0.0, 0.0, 0.0, 0.0, 1.74005878303965E9, 0.0, 2025-02-20 13:39:43.039
74.0, 499.99844477605075, 305.7106420779601, 6.894505568314344, -59.33538274699822, 0.0, -0.01600000075995922, 0.9920000471174717, 0.0, 0.0, 0.0, 0.0, 0.0, 1.7400587830398989E9, 0.0, 2025-02-20 13:39:43.039
74.0, 478.4397914814763, 268.16017657285556, 8.596160048153251, -171.55856071738526, 0.0, -0.01600000075995922, 0.9920000471174717, 0.0, 0.0, 0.0, 0.0, 0.0, 1.7400587830401888E9, 0.0, 2025-02-20 13:39:43.040
75.0, 596.914212227799, 376.3573522409424, 10.481069625820965, 3.6781916064210236, 0.0, -0.01600000075995922, 0.9920000471174717, 0.0, 0.0, 0.0, 0.0, 0.0, 1.7400587830404475E9, 0.0, 2025-02-20 13:39:43.040
75.0, 709.6815456417389, 495.41519738035277, 12.773628298658878, 49.095536668319255, 0.0, -0.01600000075995922, 0.9920000471174717, 0.0, 0.0, 0.0, 0.0, 0.0, 1.7400587830406723E9, 0.0, 2025-02-20 13:39:43.040
76.0, 623.7180752102286, 421.3857477074489, 8.884132344741374, -140.24437838839367, 0.0, -0.01600000075995922, 0.9920000471174717, 0.0, 0.0, 0.0, 0.0, 0.0, 1.7400587830694227E9, 0.0, 2025-02-20 13:39:43.069
76.0, 549.370734041091, 336.2600148660131, 10.095859930384904, -202.28931865328923, 0.0, -0.01600000075995922, 0.9920000471174717, 0.0, 0.0, 0.0, 0.0, 0.0, 1.740058783069743E9, 0.0, 2025-02-20 13:39:43.069
77.0, 607.6626847004518, 390.20246187690645, 12.474436302203685, 28.642023810651153, 0.0, -0.01600000075995922, 0.9920000471174717, 0.0, 0.0, 0.0, 0.0, 0.0, 1.7400587830700562E9, 0.0, 2025-02-20 13:39:43.070
77.0, 630.4854241800494, 431.91169613273814, 14.557560577522963, 126.16365505522117, 0.0, -0.01600000075995922, 0.9920000471174717, 0.0, 0.0, 0.0, 0.0, 0.0, 1.740058783070238E9, 0.0, 2025-02-20 13:39:43.070
78.0, 523.1933043012396, 340.63008796423674, 7.358253162819892, -72.78780288761482, 0.0, -0.01600000075995922, 0.9920000471174717, 0.0, 0.0, 0.0, 0.0, 0.0, 1.740058783070458E9, 0.0, 2025-02-20 13:39:43.070
78.0, 460.7126656915061, 266.38372409390286, 8.25582915218547, -154.59437451837584, 0.0, -0.01600000075995922, 0.9920000471174717, 0.0, 0.0, 0.0, 0.0, 0.0, 1.740058783070624E9, 0.0, 2025-02-20 13:39:43.070
79.0, 522.198490913026, 319.49591331463307, 15.787987662944943, 60.99589832732454, 0.0, -0.01600000075995922, 0.9920000471174717, 0.0, 0.0, 0.0, 0.0, 0.0, 1.7400587831289015E9, 0.0, 2025-02-20 13:39:43.128
79.0, 544.8192757950164, 378.7976369620301, 12.29866100428626, 142.09188896650448, 0.0, -0.01600000075995922, 0.9920000471174717, 0.0, 0.0, 0.0, 0.0, 0.0, 1.7400587831292076E9, 0.0, 2025-02-20 13:39:43.129
80.0, 439.7262170901522, 315.08657126687467, 8.510142349172384, -61.33622922329232, 0.0, -0.01600000075995922, 0.9920000471174717, 0.0, 0.0, 0.0, 0.0, 0.0, 1.7400587831293716E9, 0.0, 2025-02-20 13:39:43.129
80.0, 366.605563106481, 250.2909345845692, 10.335213527549058, -144.69859923562035, 0.0, -0.01600000075995922, 0.9920000471174717, 0.0, 0.0, 0.0, 0.0, 0.0, 1.7400587831295676E9, 0.0, 2025-02-20 13:39:43.129
81.0, 401.84477043896914, 323.09743697196245, 14.146171582397074, 61.84111571731046, 0.0, -0.01600000075995922, 0.9920000471174717, 0.0, 0.0, 0.0, 0.0, 0.0, 1.740058783129833E9, 0.0, 2025-02-20 13:39:43.129
81.0, 422.0645395494066, 397.2091644438915, 11.804994210135192, 145.14738723030314, 0.0, -0.01600000075995922, 0.9920000471174717, 0.0, 0.0, 0.0, 0.0, 0.0, 1.7400587831300902E9, 0.0, 2025-02-20 13:39:43.130
82.0, 322.7907651755959, 316.20854125358164, 13.039161195512861, -66.3102961643599, 0.0, -0.01600000075995922, 0.9920000471174717, 0.0, 0.0, 0.0, 0.0, 0.0, 1.740058783130828E9, 0.0, 2025-02-20 13:39:43.130
82.0, 252.29552096081898, 246.82778722560033, 11.655398211907595, -152.33173504518345, 0.0, -0.01600000075995922, 0.9920000471174717, 0.0, 0.0, 0.0, 0.0, 0.0, 1.740058783130976E9, 0.0, 2025-02-20 13:39:43.130
83.0, 342.59353544097394, 276.85731391981244, 14.579999977257103, 70.21475171810016, 0.0, -0.01600000075995922, 0.9920000471174717, 0.0, 0.0, 0.0, 0.0, 0.0, 1.7400587831312635E9, 0.0, 2025-02-20 13:39:43.131
83.0, 407.4340509227477, 300.091442394536, 9.497475937474519, 149.68762577651069, 0.0, -0.01600000075995922, 0.9920000471174717, 0.0, 0.0, 0.0, 0.0, 0.0, 1.7400587831314256E9, 0.0, 2025-02-20 13:39:43.131
84.0, 325.9995993375778, 243.0074794208631, 5.088133889716119, -64.28327038837597, 0.0, -0.01600000075995922, 0.9920000471174717, 0.0, 0.0, 0.0, 0.0, 0.0, 1.7400587831321263E9, 0.0, 2025-02-20 13:39:43.132
84.0, 247.19803732121363, 214.10740251326934, 13.921777585055679, -152.70572504075244, 0.0, -0.01600000075995922, 0.9920000471174717, 0.0, 0.0, 0.0, 0.0, 0.0, 1.740058783132267E9, 0.0, 2025-02-20 13:39:43.132
85.0, 295.5156747987494, 316.91538234520704, 15.402777967508882, 55.40474789356813, 0.0, -0.01600000075995922, 0.9920000471174717, 0.0, 0.0, 0.0, 0.0, 0.0, 1.7400587831587565E9, 0.0, 2025-02-20 13:39:43.158
85.0, 355.8496108339168, 427.2181216883473, 15.87400536192581, 143.1241013542749, 0.0, -0.01600000075995922, 0.9920000471174717, 0.0, 0.0, 0.0, 0.0, 0.0, 1.7400587831589952E9, 0.0, 2025-02-20 13:39:43.158
86.0, 270.99315078929067, 377.31102672964334, 0.6152135427109897, -77.4626778322272, 0.0, -0.01600000075995922, 0.9920000471174717, 0.0, 0.0, 0.0, 0.0, 0.0, 1.7400587831592703E9, 0.0, 2025-02-20 13:39:43.159
86.0, 222.09956871857867, 308.3454015967436, 5.970750279258937, -169.08648684667423, 0.0, -0.01600000075995922, 0.9920000471174717, 0.0, 0.0, 0.0, 0.0, 0.0, 1.740058783159448E9, 0.0, 2025-02-20 13:39:43.159
87.0, 322.94410107377917, 388.1155977016315, 10.888718720991164, 38.45178139442578, 0.0, -0.01600000075995922, 0.9920000471174717, 0.0, 0.0, 0.0, 0.0, 0.0, 1.7400587831599584E9, 0.0, 2025-02-20 13:39:43.159
87.0, 452.862615684513, 469.70338518498465, 14.609919176902622, 113.00668701110408, 0.0, -0.01600000075995922, 0.9920000471174717, 0.0, 0.0, 0.0, 0.0, 0.0, 1.7400587831601145E9, 0.0, 2025-02-20 13:39:43.160
88.0, 384.0054476503283, 390.5652321726084, 11.143031917978078, -104.56947271106765, 0.0, -0.01600000075995922, 0.9920000471174717, 0.0, 0.0, 0.0, 0.0, 0.0, 1.7400587831888812E9, 0.0, 2025-02-20 13:39:43.188
88.0, 351.42904908629134, 271.9561750278808, 11.371165815275162, -190.57969189202413, 0.0, -0.01600000075995922, 0.9920000471174717, 0.0, 0.0, 0.0, 0.0, 0.0, 1.7400587831891003E9, 0.0, 2025-02-20 13:39:43.189
89.0, 472.1586295058951, 321.1863480946049, 14.415444379206747, 18.585432829800993, 0.0, -0.01600000075995922, 0.9920000471174717, 0.0, 0.0, 0.0, 0.0, 0.0, 1.7400587831892197E9, 0.0, 2025-02-20 13:39:43.189
89.0, 507.7755667339079, 408.29796781251207, 8.345586751122028, 101.51771434722468, 0.0, -0.01600000075995922, 0.9920000471174717, 0.0, 0.0, 0.0, 0.0, 0.0, 1.7400587831893146E9, 0.0, 2025-02-20 13:39:43.189
90.0, 499.4972981819883, 328.8269637040794, 8.487702949438244, -101.3606385490857, 0.0, -0.01600000075995922, 1.008000047877431, 0.0, 0.0, 0.0, 0.0, 0.0, 1.7400587831899793E9, 0.0, 2025-02-20 13:39:43.189
90.0, 492.60653251362965, 241.85372028453276, 9.785448234062642, -171.82409361423925, 0.0, -0.01600000075995922, 1.008000047877431, 0.0, 0.0, 0.0, 0.0, 0.0, 1.7400587831902416E9, 0.0, 2025-02-20 13:39:43.190
91.0, 424.0728658256121, 301.1517040319741, 14.28828778071329, 42.15802225051448, 0.0, 0.0, 1.008000047877431, 0.0, 0.0, 0.0, 0.0, 0.0, 1.7400587832188356E9, 0.0, 2025-02-20 13:39:43.218
91.0, 606.1330656185746, 419.9140970748849, 14.774474774952978, 115.86397057725117, 0.0, 0.0, 1.008000047877431, 0.0, 0.0, 0.0, 0.0, 0.0, 1.7400587832189476E9, 0.0, 2025-02-20 13:39:43.218
92.0, 565.0857936549, 367.5910267448053, 10.552127724979073, -104.4011772130616, 0.0, 0.0, 1.008000047877431, 0.0, 0.0, 0.0, 0.0, 0.0, 1.740058783219141E9, 0.0, 2025-02-20 13:39:43.219
92.0, 488.35987611394376, 284.219306982588, 13.749742187093943, -180.68391660926864, 0.0, 0.0, 1.008000047877431, 0.0, 0.0, 0.0, 0.0, 0.0, 1.74005878321931E9, 0.0, 2025-02-20 13:39:43.219
93.0, 450.5794067615643, 355.92627878300846, 14.909111173357815, 29.906109995674342, 0.0, 0.0, 1.008000047877431, 0.0, 0.0, 0.0, 0.0, 0.0, 1.7400587832199805E9, 0.0, 2025-02-20 13:39:43.219
93.0, 510.7824462982826, 440.53964533051476, 14.819353574421257, 111.05819913418964, 0.0, 0.0, 1.008000047877431, 0.0, 0.0, 0.0, 0.0, 0.0, 1.7400587832200942E9, 0.0, 2025-02-20 13:39:43.220
94.0, 493.76777144987136, 365.00301597546786, 12.388418603222817, -86.00460933102295, 0.0, 0.0, 1.008000047877431, 0.0, 0.0, 0.0, 0.0, 0.0, 1.740058783248651E9, 0.0, 2025-02-20 13:39:43.248
94.0, 550.2066016811877, 277.06487836735323, 10.66432472364977, -159.40762576134875, 0.0, 0.0, 1.008000047877431, 0.0, 0.0, 0.0, 0.0, 0.0, 1.7400587832488084E9, 0.0, 2025-02-20 13:39:43.248
95.0, 540.8157128924504, 345.3498417083174, 13.90307808527723, 65.62963437242433, 0.0, 0.0, 1.008000047877431, 0.0, 0.0, 0.0, 0.0, 0.0, 1.7400587832491827E9, 0.0, 2025-02-20 13:39:43.249
95.0, 567.8907186216675, 443.6699415934272, 16.405071155633777, 136.23894553584978, 0.0, 0.0, 1.008000047877431, 0.0, 0.0, 0.0, 0.0, 0.0, 1.7400587832495604E9, 0.0, 2025-02-20 13:39:43.249
96.0, 397.0838777953759, 380.53482049144804, 12.104186206590384, -60.11328193778172, 0.0, 0.0, 1.008000047877431, 0.0, 0.0, 0.0, 0.0, 0.0, 1.7400587832501097E9, 0.0, 2025-02-20 13:39:43.250
96.0, 276.82926467014477, 278.5196994501166, 12.938183896709234, -125.78592515969649, 0.0, 0.0, 1.008000047877431, 0.0, 0.0, 0.0, 0.0, 0.0, 1.740058783250314E9, 0.0, 2025-02-20 13:39:43.250
97.0, 392.76055344659835, 320.2364135058597, 13.768441686872393, 86.86852622078732, 0.0, 0.0, 1.008000047877431, 0.0, 0.0, 0.0, 0.0, 0.0, 1.740058783278856E9, 0.0, 2025-02-20 13:39:43.278
97.0, 427.39015708630905, 421.35021865786985, 14.351866079960018, 158.40907247317955, 0.0, 0.0, 1.008000047877431, 0.0, 0.0, 0.0, 0.0, 0.0, 1.7400587832789905E9, 0.0, 2025-02-20 13:39:43.278
98.0, 533.2517652320676, 425.449149009306, 9.396498638670892, -44.8544901185669, 0.0, 0.0, 1.008000047877431, 0.0, 0.0, 0.0, 0.0, 0.0, 1.740058783279114E9, 0.0, 2025-02-20 13:39:43.279
98.0, 662.4690486011095, 349.9087797543034, 12.915744496975094, -104.90606370707974, 0.0, 0.0, 1.008000047877431, 0.0, 0.0, 0.0, 0.0, 0.0, 1.7400587832792203E9, 0.0, 2025-02-20 13:39:43.279
99.0, 625.9003068343736, 360.7040009764023, 15.623432064894587, 76.26964974636212, 0.0, 0.0, 1.008000047877431, 0.0, 0.0, 0.0, 0.0, 0.0, 1.7400587832798853E9, 0.0, 2025-02-20 13:39:43.279
99.0, 657.9157204050571, 438.1741586085409, 14.935290473047644, 157.2384837870486, 0.0, 0.0, 1.008000047877431, 0.0, 0.0, 0.0, 0.0, 0.0, 1.7400587832801092E9, 0.0, 2025-02-20 13:39:43.280
100.0, 419.79816017625853, 409.15066500240937, 6.213843776378781, -50.85328964749351, 0.0, 0.0, 1.008000047877431, 0.0, 0.0, 0.0, 0.0, 0.0, 1.7400587833087933E9, 0.0, 2025-02-20 13:39:43.308
100.0, 502.5097875962965, 314.1889952775091, 5.723916882183403, -128.71800672495738, 0.0, 0.0, 1.008000047877431, 0.0, 0.0, 0.0, 0.0, 0.0, 1.740058783308988E9, 0.0, 2025-02-20 13:39:43.308
0.0, -374.8800917584449, -122.91929184366018, 12.074267006944865, 77.40657933289185, 0.0, 0.0, 1.008000047877431, 0.0, 0.0, 0.0, 0.0, 0.0, 1.7400587833091233E9, 0.0, 2025-02-20 13:39:43.309
1.0, -375.8823849465698, 18.70136972842738, 12.160284705925733, 128.0448247329332, 0.0, 0.0, 1.008000047877431, 0.0, 0.0, 0.0, 0.0, 0.0, 1.7400587833097093E9, 0.0, 2025-02-20 13:39:43.309
1.0, -391.9359055063687, -9.125355891883373, 12.635252000298351, -72.29787599341944, 0.0, 0.0, 1.008000047877431, 0.0, 0.0, 0.0, 0.0, 0.0, 1.74005878330979E9, 0.0, 2025-02-20 13:39:43.309
2.0, -223.0457634073682, -162.1377527290024, 10.731642922852188, -156.67001899378374, 0.0, 0.0, 1.008000047877431, 0.0, 0.0, 0.0, 0.0, 0.0, 1.7400587833106499E9, 0.0, 2025-02-20 13:39:43.310
2.0, -284.0697109843604, -94.68304717820138, 16.569626753684133, 43.94569442933425, 0.0, 0.0, 1.008000047877431, 0.0, 0.0, 0.0, 0.0, 0.0, 1.7400587833107574E9, 0.0, 2025-02-20 13:39:43.310
3.0, -98.63238153140992, 37.32981140771881, 14.65853787632659, 92.44845695467666, 0.0, 0.0, 1.008000047877431, 0.0, 0.0, 0.0, 0.0, 0.0, 1.7400587833390872E9, 0.0, 2025-02-20 13:39:43.339
3.0, -28.475598262622952, -67.33689870219678, 11.606779512483627, -115.73307407880202, 0.0, 0.0, 1.008000047877431, 0.0, 0.0, 0.0, 0.0, 0.0, 1.7400587833393548E9, 0.0, 2025-02-20 13:39:43.339
4.0, -166.2815618799068, -199.24130018940195, 9.87146593304351, -177.89769114227965, 0.0, 0.0, 1.008000047877431, 0.0, 0.0, 0.0, 0.0, 0.0, 1.7400587833396444E9, 0.0, 2025-02-20 13:39:43.339
4.0, -248.74261600291356, -103.39327417500317, 16.173197358381003, 23.293966874014586, 0.0, 0.0, 1.008000047877431, 0.0, 0.0, 0.0, 0.0, 0.0, 1.7400587833397703E9, 0.0, 2025-02-20 13:39:43.339
5.0, -57.82633311487734, 32.595098063815385, 12.915744496975094, 92.71772975148633, 0.0, 0.0, 1.008000047877431, 0.0, 0.0, 0.0, 0.0, 0.0, 1.7400587833687584E9, 0.0, 2025-02-20 13:39:43.368
5.0, -25.472458598203957, -97.1588609488681, 9.88268563291058, -102.85659853136167, 0.0, 0.0, 1.008000047877431, 0.0, 0.0, 0.0, 0.0, 0.0, 1.7400587833689156E9, 0.0, 2025-02-20 13:39:43.368
6.0, -125.42315486399457, -239.75189650943503, 7.8369603571482, -154.0932279243134, 0.0, 0.0, 1.008000047877431, 0.0, 0.0, 0.0, 0.0, 0.0, 1.7400587833691556E9, 0.0, 2025-02-20 13:39:43.369
6.0, -155.62658690614626, -248.40976490685716, 16.625725253019482, 65.8652480696328, 0.0, 0.0, 1.008000047877431, 0.0, 0.0, 0.0, 0.0, 0.0, 1.7400587833692908E9, 0.0, 2025-02-20 13:39:43.369
7.0, -41.96915730275214, -187.70557877607644, 10.510988825466484, 162.39954572590068, 0.0, 0.0, 1.008000047877431, 0.0, 0.0, 0.0, 0.0, 0.0, 1.7400587833699389E9, 0.0, 2025-02-20 13:39:43.369
7.0, -110.75152733782306, -195.7407538308762, 7.735983058344573, -52.54372442746535, 0.0, 0.0, 1.008000047877431, 0.0, 0.0, 0.0, 0.0, 0.0, 1.7400587833701048E9, 0.0, 2025-02-20 13:39:43.370
8.0, -126.86488629691303, -241.69851443637162, 12.227602905128151, -75.3122353577055, 0.0, 0.0, 1.008000047877431, 0.0, 0.0, 0.0, 0.0, 0.0, 1.7400587833706503E9, 0.0, 2025-02-20 13:39:43.370
8.0, 104.08702561678365, -268.89506691414863, 13.783401286695153, 128.10092323226854, 0.0, 0.0, 1.008000047877431, 0.0, 0.0, 0.0, 0.0, 0.0, 1.7400587833707893E9, 0.0, 2025-02-20 13:39:43.370
9.0, -0.443178144749254, -334.5377909364179, 9.979923031758517, 155.91455920273438, 0.0, 0.0, 1.008000047877431, 0.0, 0.0, 0.0, 0.0, 0.0, 1.7400587833992512E9, 0.0, 2025-02-20 13:39:43.399
9.0, 137.88076161639765, -261.63218120019883, 9.87894573295489, -62.439499710220844, 0.0, 0.0, 1.008000047877431, 0.0, 0.0, 0.0, 0.0, 0.0, 1.740058783399536E9, 0.0, 2025-02-20 13:39:43.399
10.0, 160.8362675444223, -404.1279793619178, 8.943970744032413, -111.56682552816346, 0.0, 0.0, 1.008000047877431, 0.0, 0.0, 0.0, 0.0, 0.0, 1.7400587833996353E9, 0.0, 2025-02-20 13:39:43.399
10.0, 130.18030760763213, -424.8058862169273, 15.10358597105369, 91.34518646774814, 0.0, 0.0, 1.008000047877431, 0.0, 0.0, 0.0, 0.0, 0.0, 1.7400587833997068E9, 0.0, 2025-02-20 13:39:43.399
11.0, 161.65717558469623, -258.98807193152606, 13.936737184878439, 137.828403017018, 0.0, -0.01600000075995922, 1.008000047877431, 0.0, 0.0, 0.0, 0.0, 0.0, 1.7400587834290233E9, 0.0, 2025-02-20 13:39:43.429
11.0, 124.57419757405296, -278.3289645523764, 9.964963431935757, -74.56051546661183, 0.0, -0.01600000075995922, 1.008000047877431, 0.0, 0.0, 0.0, 0.0, 0.0, 1.7400587834292023E9, 0.0, 2025-02-20 13:39:43.429
12.0, 110.83567508682609, -420.6078485166654, 8.947710643988103, -130.82731029996648, 0.0, -0.01600000075995922, 1.008000047877431, 0.0, 0.0, 0.0, 0.0, 0.0, 1.7400587834297965E9, 0.0, 2025-02-20 13:39:43.429
12.0, 166.37879927875474, -415.6543510253541, 10.862539421301335, 68.8309887344949, 0.0, -0.01600000075995922, 1.008000047877431, 0.0, 0.0, 0.0, 0.0, 0.0, 1.7400587834303353E9, 0.0, 2025-02-20 13:39:43.430
13.0, 178.87567498069257, -259.2274255286902, 15.90766446152702, 125.49047306319699, 0.0, -0.01600000075995922, 1.008000047877431, 0.0, 0.0, 0.0, 0.0, 0.0, 1.740058783430513E9, 0.0, 2025-02-20 13:39:43.430
13.0, 108.38791056582704, -296.8639087327756, 11.05701421899721, -89.41539809061214, 0.0, -0.01600000075995922, 1.008000047877431, 0.0, 0.0, 0.0, 0.0, 0.0, 1.7400587834307837E9, 0.0, 2025-02-20 13:39:43.430
14.0, 30.99255093280226, -455.53103430289775, 8.330627151299268, -132.03155808569863, 0.0, -0.01600000075995922, 1.008000047877431, 0.0, 0.0, 0.0, 0.0, 0.0, 1.740058783430998E9, 0.0, 2025-02-20 13:39:43.430
14.0, 174.16527098650113, -408.7991144065745, 11.105632918421179, 70.30824921699241, 0.0, -0.01600000075995922, 1.008000047877431, 0.0, 0.0, 0.0, 0.0, 0.0, 1.740058783431151E9, 0.0, 2025-02-20 13:39:43.431
15.0, 200.1706653283909, -240.01555945631117, 8.820554045494646, 124.14036917919293, 0.0, -0.01600000075995922, 1.008000047877431, 0.0, 0.0, 0.0, 0.0, 0.0, 1.7400587834587867E9, 0.0, 2025-02-20 13:39:43.458
15.0, 269.55328930635005, -288.01904533756897, 9.84528663335368, -81.41949198534712, 0.0, -0.01600000075995922, 1.008000047877431, 0.0, 0.0, 0.0, 0.0, 0.0, 1.7400587834589033E9, 0.0, 2025-02-20 13:39:43.458
16.0, 214.54123090812936, -409.1525349523872, 9.8378068334423, -134.64948805468157, 0.0, -0.01600000075995922, 1.008000047877431, 0.0, 0.0, 0.0, 0.0, 0.0, 1.7400587834593537E9, 0.0, 2025-02-20 13:39:43.459
16.0, 196.90386271709576, -388.77569004381076, 18.974382425192744, 82.2422699755989, 0.0, -0.01600000075995922, 1.008000047877431, 0.0, 0.0, 0.0, 0.0, 0.0, 1.7400587834595375E9, 0.0, 2025-02-20 13:39:43.459
17.0, 326.0145589374006, -261.4638857021928, 14.161131182219833, 140.96243917988613, 0.0, -0.01600000075995922, 1.008000047877431, 0.0, 0.0, 0.0, 0.0, 0.0, 1.7400587834887042E9, 0.0, 2025-02-20 13:39:43.488
17.0, 355.41765238903463, -277.1134970667772, 8.326887251343578, -63.92423999262974, 0.0, -0.01600000075995922, 1.008000047877431, 0.0, 0.0, 0.0, 0.0, 0.0, 1.7400587834889565E9, 0.0, 2025-02-20 13:39:43.488
18.0, 262.86821813555434, -409.335790050216, 10.795221222098917, -111.77999982563779, 0.0, -0.01600000075995922, 1.008000047877431, 0.0, 0.0, 0.0, 0.0, 0.0, 1.7400587834892375E9, 0.0, 2025-02-20 13:39:43.489
18.0, 235.17799886362627, -389.00382394110784, 19.800900315400213, 130.157868207898, 0.0, -0.01600000075995922, 1.008000047877431, 0.0, 0.0, 0.0, 0.0, 0.0, 1.7400587834893763E9, 0.0, 2025-02-20 13:39:43.489
19.0, 345.2787836091593, -262.80650978628546, 14.916590973269194, 187.3334587304853, 0.0, -0.01600000075995922, 1.008000047877431, 0.0, 0.0, 0.0, 0.0, 0.0, 1.7400587834898505E9, 0.0, 2025-02-20 13:39:43.489
19.0, 338.2907805419527, -292.91831427952275, 8.005255855154246, -4.766502493526787, 0.0, -0.01600000075995922, 1.008000047877431, 0.0, 0.0, 0.0, 0.0, 0.0, 1.740058783490059E9, 0.0, 2025-02-20 13:39:43.490
20.0, 207.19419744517654, -453.16367763094604, 10.133258929941803, -52.50632542790845, 0.0, -0.01600000075995922, 1.008000047877431, 0.0, 0.0, 0.0, 0.0, 0.0, 1.7400587834907887E9, 0.0, 2025-02-20 13:39:43.490
20.0, 227.93381264945492, -458.01806777343154, 12.994282396044582, 178.33525943709537, 0.0, -0.01600000075995922, 1.008000047877431, 0.0, 0.0, 0.0, 0.0, 0.0, 1.740058783491E9, 0.0, 2025-02-20 13:39:43.491
21.0, 308.61280444357544, -345.97627495089546, 14.191050381865352, 216.17556718876585, 0.0, -0.01600000075995922, 1.008000047877431, 0.0, 0.0, 0.0, 0.0, 0.0, 1.7400587835190992E9, 0.0, 2025-02-20 13:39:43.519
21.0, 288.98393952613696, -344.02030727406964, 9.359099639113992, -17.403624443802983, 0.0, -0.01600000075995922, 1.008000047877431, 0.0, 0.0, 0.0, 0.0, 0.0, 1.740058783519313E9, 0.0, 2025-02-20 13:39:43.519
22.0, 183.47949182614684, -432.0182832814753, 11.135552118066698, -86.69649082282558, 0.0, -0.01600000075995922, 1.008000047877431, 0.0, 0.0, 0.0, 0.0, 0.0, 1.7400587835195725E9, 0.0, 2025-02-20 13:39:43.519
22.0, 148.8480182364583, -445.74371611885726, 12.575413601007313, 107.37439767783508, 0.0, -0.01600000075995922, 1.008000047877431, 0.0, 0.0, 0.0, 0.0, 0.0, 1.74005878351974E9, 0.0, 2025-02-20 13:39:43.519
23.0, 265.8489184002392, -318.18507838016376, 12.960623296443373, 129.90729491086677, 0.0, -0.01600000075995922, 1.008000047877431, 0.0, 0.0, 0.0, 0.0, 0.0, 1.7400587835490203E9, 0.0, 2025-02-20 13:39:43.549
23.0, 249.71685994137079, -312.04416265292093, 9.662031535524875, -97.44122339552268, 0.0, -0.01600000075995922, 1.008000047877431, 0.0, 0.0, 0.0, 0.0, 0.0, 1.7400587835492363E9, 0.0, 2025-02-20 13:39:43.549
24.0, 101.81316644372419, -449.8089873706922, 8.914051544386894, -150.78341646352783, 0.0, -0.01600000075995922, 1.008000047877431, 0.0, 0.0, 0.0, 0.0, 0.0, 1.7400587835494351E9, 0.0, 2025-02-20 13:39:43.549
24.0, 91.25916876876727, -444.99386617774144, 14.27332818089053, 88.12139270594344, 0.0, -0.01600000075995922, 1.008000047877431, 0.0, 0.0, 0.0, 0.0, 0.0, 1.7400587835496175E9, 0.0, 2025-02-20 13:39:43.549
25.0, 156.20440144930035, -306.1033315733075, 13.07656019506976, 143.7898035463877, 0.0, -0.01600000075995922, 1.008000047877431, 0.0, 0.0, 0.0, 0.0, 0.0, 1.7400587835498164E9, 0.0, 2025-02-20 13:39:43.549
25.0, 108.35799136618152, -328.2416693610139, 6.830927269067615, -64.99759127991274, 0.0, -0.01600000075995922, 1.008000047877431, 0.0, 0.0, 0.0, 0.0, 0.0, 1.7400587835500023E9, 0.0, 2025-02-20 13:39:43.550
26.0, -8.915921494364738, -473.0001069959253, 9.822847233619541, -102.1759367394261, 0.0, -0.01600000075995922, 1.008000047877431, 0.0, 0.0, 0.0, 0.0, 0.0, 1.7400587835509431E9, 0.0, 2025-02-20 13:39:43.550
26.0, -5.869772980455309, -444.73581308079883, 14.849272774066776, 116.80268546612933, 0.0, -0.01600000075995922, 1.008000047877431, 0.0, 0.0, 0.0, 0.0, 0.0, 1.7400587835511763E9, 0.0, 2025-02-20 13:39:43.551
27.0, 124.14971892908216, -283.7948283376172, 11.296367816161364, 158.92891856702045, 0.0, -0.01600000075995922, 1.008000047877431, 0.0, 0.0, 0.0, 0.0, 0.0, 1.7400587835790122E9, 0.0, 2025-02-20 13:39:43.579
27.0, 143.33540570177138, -234.82831821776927, 9.104786442127079, -55.40100799361244, 0.0, -0.01600000075995922, 1.008000047877431, 0.0, 0.0, 0.0, 0.0, 0.0, 1.7400587835793998E9, 0.0, 2025-02-20 13:39:43.579
28.0, 25.95303574251011, -373.13542842911556, 12.523055001627654, -105.45208910061046, 0.0, -0.01600000075995922, 1.008000047877431, 0.0, 0.0, 0.0, 0.0, 0.0, 1.7400587835795891E9, 0.0, 2025-02-20 13:39:43.579
28.0, 16.506048454437405, -382.41038031922653, 15.657091164495796, 106.01307409396395, 0.0, -0.01600000075995922, 1.008000047877431, 0.0, 0.0, 0.0, 0.0, 0.0, 1.740058783579712E9, 0.0, 2025-02-20 13:39:43.579
29.0, 150.86008441261947, -226.80623281281441, 16.075959959533066, 141.36260847514495, 0.0, -0.01600000075995922, 1.008000047877431, 0.0, 0.0, 0.0, 0.0, 0.0, 1.7400587836092253E9, 0.0, 2025-02-20 13:39:43.609
29.0, 145.56251612538472, -202.1341128051281, 9.594713336322457, -83.70083095831797, 0.0, -0.01600000075995922, 1.008000047877431, 0.0, 0.0, 0.0, 0.0, 0.0, 1.7400587836096413E9, 0.0, 2025-02-20 13:39:43.609
30.0, -16.95670639909804, -364.5598378307186, 12.040607907343656, -121.05121181579307, 0.0, -0.01600000075995922, 1.008000047877431, 0.0, 0.0, 0.0, 0.0, 0.0, 1.740058783609897E9, 0.0, 2025-02-20 13:39:43.609
30.0, -36.30694876983762, -401.689564590808, 15.9151442614384, 102.74066163273528, 0.0, -0.01600000075995922, 1.008000047877431, 0.0, 0.0, 0.0, 0.0, 0.0, 1.7400587836100912E9, 0.0, 2025-02-20 13:39:43.610
31.0, 112.27366661978886, -251.69526701793075, 14.576260077301413, 139.61607519583777, 0.0, -0.01600000075995922, 1.008000047877431, 0.0, 0.0, 0.0, 0.0, 0.0, 1.7400587836103003E9, 0.0, 2025-02-20 13:39:43.610
31.0, 116.59699096856639, -250.48353943228722, 8.26330895209685, -73.89481327449903, 0.0, -0.01600000075995922, 1.008000047877431, 0.0, 0.0, 0.0, 0.0, 0.0, 1.740058783610464E9, 0.0, 2025-02-20 13:39:43.610
32.0, -10.684894173406065, -406.2447627368383, 9.519915337208658, -108.6646631625481, 0.0, -0.01600000075995922, 1.008000047877431, 0.0, 0.0, 0.0, 0.0, 0.0, 1.7400587836108265E9, 0.0, 2025-02-20 13:39:43.610
32.0, -14.91846092324704, -382.4085103692487, 16.431250455323607, 120.63608292071149, 0.0, -0.01600000075995922, 1.008000047877431, 0.0, 0.0, 0.0, 0.0, 0.0, 1.7400587836109972E9, 0.0, 2025-02-20 13:39:43.610
33.0, 125.6363291614689, -249.2849014964886, 15.971242760773748, 161.30375503888354, 0.0, -0.01600000075995922, 1.008000047877431, 0.0, 0.0, 0.0, 0.0, 0.0, 1.740058783638728E9, 0.0, 2025-02-20 13:39:43.638
33.0, 146.61342801293358, -219.3470023511909, 8.581200448330492, -65.5660560731776, 0.0, -0.01600000075995922, 1.008000047877431, 0.0, 0.0, 0.0, 0.0, 0.0, 1.7400587836390529E9, 0.0, 2025-02-20 13:39:43.639
34.0, -1.5632781814783812, -344.4223465193063, 12.953143496531993, -101.51771434722468, 0.0, -0.01600000075995922, 1.008000047877431, 0.0, 0.0, 0.0, 0.0, 0.0, 1.7400587836395004E9, 0.0, 2025-02-20 13:39:43.639
34.0, 4.867479792330414, -374.4836623631418, 15.87026546197012, 110.96470163529739, 0.0, -0.01600000075995922, 1.008000047877431, 0.0, 0.0, 0.0, 0.0, 0.0, 1.7400587836396658E9, 0.0, 2025-02-20 13:39:43.639
35.0, 141.4355365242809, -216.80387038132176, 10.825140421744436, 144.78461693460122, 0.0, -0.01600000075995922, 1.008000047877431, 0.0, 0.0, 0.0, 0.0, 0.0, 1.7400587836690466E9, 0.0, 2025-02-20 13:39:43.669
35.0, 175.29285082314163, -179.6255249218084, 10.611966124270111, -72.26421689381823, 0.0, -0.01600000075995922, 1.008000047877431, 0.0, 0.0, 0.0, 0.0, 0.0, 1.7400587836692336E9, 0.0, 2025-02-20 13:39:43.669
36.0, 54.19676020788029, -333.58785634767264, 7.275975363794714, -99.71882246853784, 0.0, -0.01600000075995922, 1.008000047877431, 0.0, 0.0, 0.0, 0.0, 0.0, 1.740058783669572E9, 0.0, 2025-02-20 13:39:43.669
36.0, 60.02539428882301, -371.6114191971719, 15.533674465958029, 116.20056157326326, 0.0, -0.01600000075995922, 1.008000047877431, 0.0, 0.0, 0.0, 0.0, 0.0, 1.740058783669798E9, 0.0, 2025-02-20 13:39:43.669
37.0, 205.86840291088447, -210.28896465850994, 9.347879939246923, 149.96437837323174, 0.0, -0.01600000075995922, 1.008000047877431, 0.0, 0.0, 0.0, 0.0, 0.0, 1.7400587836700423E9, 0.0, 2025-02-20 13:39:43.670
37.0, 207.3755825930275, -191.01352028688416, 9.127225841861218, -68.52805683808401, 0.0, -0.01600000075995922, 1.008000047877431, 0.0, 0.0, 0.0, 0.0, 0.0, 1.7400587836701672E9, 0.0, 2025-02-20 13:39:43.670
38.0, 48.955290419980884, -355.44383168872446, 10.181877629365772, -97.77781439153478, 0.0, -0.01600000075995922, 1.008000047877431, 0.0, 0.0, 0.0, 0.0, 0.0, 1.7400587836710885E9, 0.0, 2025-02-20 13:39:43.671
38.0, 40.91450551524758, -392.61843724828213, 12.758668698836118, 120.43786822305992, 0.0, -0.01600000075995922, 1.008000047877431, 0.0, 0.0, 0.0, 0.0, 0.0, 1.7400587836711862E9, 0.0, 2025-02-20 13:39:43.671
39.0, 200.84571727039292, -218.6813001590781, 11.49832241376862, 156.1651324997656, 0.0, -0.01600000075995922, 1.008000047877431, 0.0, 0.0, 0.0, 0.0, 0.0, 1.740058783699113E9, 0.0, 2025-02-20 13:39:43.699
39.0, 201.98264685692266, -193.87828365294263, 9.497475937474519, -61.89721421664581, 0.0, -0.01600000075995922, 1.008000047877431, 0.0, 0.0, 0.0, 0.0, 0.0, 1.7400587836995015E9, 0.0, 2025-02-20 13:39:43.699
40.0, 42.26460939925164, -350.5445627467707, 12.960623296443373, -97.36642539640889, 0.0, -0.01600000075995922, 0.9920000471174717, 0.0, 0.0, 0.0, 0.0, 0.0, 1.7400587836998348E9, 0.0, 2025-02-20 13:39:43.699
40.0, 28.254944165237248, -365.4630236700177, 12.822246998082846, 127.29684474179521, 0.0, -0.01600000075995922, 0.9920000471174717, 0.0, 0.0, 0.0, 0.0, 0.0, 1.7400587836999433E9, 0.0, 2025-02-20 13:39:43.699
41.0, 188.20859532011673, -196.2568600247614, 13.596406288910657, 150.43186586769298, 0.0, 0.0, 0.9920000471174717, 0.0, 0.0, 0.0, 0.0, 0.0, 1.7400587837289453E9, 0.0, 2025-02-20 13:39:43.728
41.0, 215.47620589705184, -180.60911861015484, 13.645024988334626, -68.67765283631161, 0.0, 0.0, 0.9920000471174717, 0.0, 0.0, 0.0, 0.0, 0.0, 1.740058783729178E9, 0.0, 2025-02-20 13:39:43.729
42.0, 60.26100798603147, -346.51295059453696, 5.278868787456304, -96.05372051196173, 0.0, 0.0, 0.9920000471174717, 0.0, 0.0, 0.0, 0.0, 0.0, 1.740058783729379E9, 0.0, 2025-02-20 13:39:43.729
42.0, 29.78830314707011, -375.2877408536151, 13.140138494316489, 118.80353194242343, 0.0, 0.0, 0.9920000471174717, 0.0, 0.0, 0.0, 0.0, 0.0, 1.7400587837294989E9, 0.0, 2025-02-20 13:39:43.729
43.0, 184.76414746092632, -199.61529018497095, 14.856752573978156, 141.38878777483478, 0.0, 0.0, 0.9920000471174717, 0.0, 0.0, 0.0, 0.0, 0.0, 1.7400587837300584E9, 0.0, 2025-02-20 13:39:43.730
43.0, 210.73775265319273, -163.77582890959457, 8.457783749792725, -73.74147737631574, 0.0, 0.0, 0.9920000471174717, 0.0, 0.0, 0.0, 0.0, 0.0, 1.7400587837302394E9, 0.0, 2025-02-20 13:39:43.730
44.0, 45.93345125578344, -339.0144511833787, 10.739122722763568, -107.07894558133557, 0.0, 0.0, 0.9920000471174717, 0.0, 0.0, 0.0, 0.0, 0.0, 1.7400587837308147E9, 0.0, 2025-02-20 13:39:43.730
44.0, 19.36146207060665, -362.4785835053772, 16.206856457982212, 110.39997674198821, 0.0, 0.0, 0.9920000471174717, 0.0, 0.0, 0.0, 0.0, 0.0, 1.7400587837309737E9, 0.0, 2025-02-20 13:39:43.730
45.0, 173.9109577895142, -190.34033829485998, 15.170904170256108, 136.73261233000085, 0.0, 0.0, 0.9920000471174717, 0.0, 0.0, 0.0, 0.0, 0.0, 1.7400587837592044E9, 0.0, 2025-02-20 13:39:43.759
45.0, 194.56268534483388, -158.8690801677294, 8.700877246912569, -80.39849929744378, 0.0, 0.0, 0.9920000471174717, 0.0, 0.0, 0.0, 0.0, 0.0, 1.7400587837593713E9, 0.0, 2025-02-20 13:39:43.759
46.0, 31.0149903325364, -333.4233007496223, 13.263555192854255, -109.06483245780692, 0.0, 0.0, 0.9920000471174717, 0.0, 0.0, 0.0, 0.0, 0.0, 1.7400587837595727E9, 0.0, 2025-02-20 13:39:43.759
46.0, -4.704794144257903, -366.1399455619976, 11.337506715673953, 103.85141191957518, 0.0, 0.0, 0.9920000471174717, 0.0, 0.0, 0.0, 0.0, 0.0, 1.7400587837597184E9, 0.0, 2025-02-20 13:39:43.759
47.0, 152.47385124349967, -185.4822082524188, 11.300107716117054, 125.89812215836719, 0.0, 0.0, 0.9920000471174717, 0.0, 0.0, 0.0, 0.0, 0.0, 1.74005878378927E9, 0.0, 2025-02-20 13:39:43.789
47.0, 170.4739897302352, -152.1671794471331, 9.42641783831641, -92.80000755051151, 0.0, 0.0, 0.9920000471174717, 0.0, 0.0, 0.0, 0.0, 0.0, 1.740058783789572E9, 0.0, 2025-02-20 13:39:43.789
48.0, 8.646648697555065, -323.7818386638537, 5.952050779480487, -120.93901481712237, 0.0, 0.0, 0.9920000471174717, 0.0, 0.0, 0.0, 0.0, 0.0, 1.740058783789744E9, 0.0, 2025-02-20 13:39:43.789
48.0, -32.353874516673386, -351.47579783573747, 15.410257767420262, 101.27836075006053, 0.0, 0.0, 0.9920000471174717, 0.0, 0.0, 0.0, 0.0, 0.0, 1.7400587837899609E9, 0.0, 2025-02-20 13:39:43.789
49.0, 148.33378199255094, -149.88210057420656, 12.68761059967801, 117.89847615314648, 0.0, 0.0, 0.9920000471174717, 0.0, 0.0, 0.0, 0.0, 0.0, 1.7400587837900572E9, 0.0, 2025-02-20 13:39:43.790
49.0, 179.3225930253975, -117.58806445682421, 13.05412079533562, -100.34712566109374, 0.0, 0.0, 0.9920000471174717, 0.0, 0.0, 0.0, 0.0, 0.0, 1.74005878379017E9, 0.0, 2025-02-20 13:39:43.790
50.0, -19.967325863428414, -322.4055554801598, 9.796667933929712, -120.05265852762386, 0.0, 0.0, 0.9920000471174717, 0.0, 0.0, 0.0, 0.0, 0.0, 1.7400587837908363E9, 0.0, 2025-02-20 13:39:43.790
50.0, -60.967849077656865, -353.5327428113669, 15.129765270743519, 91.25542886881158, 0.0, 0.0, 0.9920000471174717, 0.0, 0.0, 0.0, 0.0, 0.0, 1.7400587837909217E9, 0.0, 2025-02-20 13:39:43.790
51.0, 102.91643693065271, -164.01518250675872, 11.913451308850199, 102.04504024097696, 0.0, 0.0, 0.9920000471174717, 0.0, 0.0, 0.0, 0.0, 0.0, 1.7400587838190055E9, 0.0, 2025-02-20 13:39:43.819
51.0, 148.70029218820855, -101.49527494749054, 7.694844158831984, -107.41927647730336, 0.0, 0.0, 0.9920000471174717, 0.0, 0.0, 0.0, 0.0, 0.0, 1.7400587838191693E9, 0.0, 2025-02-20 13:39:43.819
52.0, 1.6792150801047683, -274.11222735233605, 11.801254310179502, -120.79315871885046, 0.0, 0.0, 0.9920000471174717, 0.0, 0.0, 0.0, 0.0, 0.0, 1.7400587838195343E9, 0.0, 2025-02-20 13:39:43.819
52.0, -59.767341191880405, -324.9262480502948, 13.10273949475959, 93.12911874661222, 0.0, 0.0, 0.9920000471174717, 0.0, 0.0, 0.0, 0.0, 0.0, 1.7400587838197908E9, 0.0, 2025-02-20 13:39:43.819
53.0, 151.02277006069198, -125.66250846115872, 12.822246998082846, 115.50868008146062, 0.0, 0.0, 0.9920000471174717, 0.0, 0.0, 0.0, 0.0, 0.0, 1.7400587838488808E9, 0.0, 2025-02-20 13:39:43.848
53.0, 155.8360213036649, -97.97228918923065, 10.66432472364977, -100.02549426490441, 0.0, 0.0, 0.9920000471174717, 0.0, 0.0, 0.0, 0.0, 0.0, 1.740058783855624E9, 0.0, 2025-02-20 13:39:43.855
54.0, -7.808911107480526, -305.0374600859359, 9.127225841861218, -113.8855635006912, 0.0, 0.0, 0.9920000471174717, 0.0, 0.0, 0.0, 0.0, 0.0, 1.7400587838560312E9, 0.0, 2025-02-20 13:39:43.856
54.0, -68.86277788411826, -351.88344693090767, 14.243408981245011, 93.36847234377638, 0.0, 0.0, 0.9920000471174717, 0.0, 0.0, 0.0, 0.0, 0.0, 1.7400587838565433E9, 0.0, 2025-02-20 13:39:43.856
55.0, 112.90570971230045, -155.25259691057727, 14.475282778497785, 111.45462852949277, 0.0, 0.0, 0.9920000471174717, 0.0, 0.0, 0.0, 0.0, 0.0, 1.7400587838567224E9, 0.0, 2025-02-20 13:39:43.856
55.0, 144.80705633433536, -113.99402059940621, 8.469003449659795, -92.48959585418925, 0.0, 0.0, 0.9920000471174717, 0.0, 0.0, 0.0, 0.0, 0.0, 1.740058783856925E9, 0.0, 2025-02-20 13:39:43.856
56.0, -25.999784491956234, -321.97920688521117, 7.43679106188938, -116.75032686674967, 0.0, 0.0, 0.9920000471174717, 0.0, 0.0, 0.0, 0.0, 0.0, 1.7400587838571243E9, 0.0, 2025-02-20 13:39:43.857
56.0, -65.73996142111719, -363.89974548853934, 17.384924944024533, 101.64861084567383, 0.0, 0.0, 0.9920000471174717, 0.0, 0.0, 0.0, 0.0, 0.0, 1.740058783857375E9, 0.0, 2025-02-20 13:39:43.857
57.0, 118.18270854977891, -162.64263922302052, 14.613659076858312, 115.60965738026425, 0.0, 0.0, 0.9920000471174717, 0.0, 0.0, 0.0, 0.0, 0.0, 1.7400587838790476E9, 0.0, 2025-02-20 13:39:43.879
57.0, 175.63131176913157, -120.35559042403474, 11.348726415541023, -99.72256236849353, 0.0, 0.0, 0.9920000471174717, 0.0, 0.0, 0.0, 0.0, 0.0, 1.7400587838793006E9, 0.0, 2025-02-20 13:39:43.879
58.0, -19.35398227069527, -319.20794101804495, 12.369719103444368, -112.6252172156237, 0.0, 0.0, 0.9920000471174717, 0.0, 0.0, 0.0, 0.0, 0.0, 1.740058783879415E9, 0.0, 2025-02-20 13:39:43.879
58.0, -52.17908418178558, -352.313535425812, 13.173797593917698, 106.09161199303344, 0.0, 0.0, 0.9920000471174717, 0.0, 0.0, 0.0, 0.0, 0.0, 1.7400587838795059E9, 0.0, 2025-02-20 13:39:43.879
59.0, 145.29324332857504, -150.59642146574333, 16.77158135129139, 116.64560966799036, 0.0, 0.0, 0.9920000471174717, 0.0, 0.0, 0.0, 0.0, 0.0, 1.7400587839089284E9, 0.0, 2025-02-20 13:39:43.908
59.0, 177.34792584879324, -98.75766817992553, 11.225309717003256, -100.23492866242304, 0.0, 0.0, 0.9920000471174717, 0.0, 0.0, 0.0, 0.0, 0.0, 1.7400587839092028E9, 0.0, 2025-02-20 13:39:43.909
60.0, -7.360123112797737, -308.5978448437527, 12.313620604109019, -118.6314965444617, 0.0, 0.0, 0.9920000471174717, 0.0, 0.0, 0.0, 0.0, 0.0, 1.740058783909322E9, 0.0, 2025-02-20 13:39:43.909
60.0, -62.44884946011007, -348.45021877158433, 14.007795284036547, 102.15723723964766, 0.0, 0.0, 0.9920000471174717, 0.0, 0.0, 0.0, 0.0, 0.0, 1.7400587839095109E9, 0.0, 2025-02-20 13:39:43.909
61.0, 133.22458617156371, -129.61558271432295, 10.507248925510794, 113.98654079949483, 0.0, -0.01600000075995922, 0.9920000471174717, 0.0, 0.0, 0.0, 0.0, 0.0, 1.740058783909952E9, 0.0, 2025-02-20 13:39:43.909
61.0, 177.28060764959082, -79.4261253089644, 5.641639083158225, -104.35255851363763, 0.0, -0.01600000075995922, 0.9920000471174717, 0.0, 0.0, 0.0, 0.0, 0.0, 1.7400587839101293E9, 0.0, 2025-02-20 13:39:43.910
62.0, -41.46053090877831, -304.64477059058845, 10.151958429720253, -107.58009217539802, -0.01600000075995922, -0.01600000075995922, 0.9920000471174717, 0.0, 0.0, 0.0, 0.0, 0.0, 1.740058783910671E9, 0.0, 2025-02-20 13:39:43.910
62.0, -61.368018372915685, -350.85871434304863, 15.743108863476664, 103.95238921837881, -0.01600000075995922, -0.01600000075995922, 0.9920000471174717, 0.0, 0.0, 0.0, 0.0, 0.0, 1.740058783910785E9, 0.0, 2025-02-20 13:39:43.910
63.0, 145.8691879217513, -119.09524413896725, 10.959776820149273, 109.8502114485018, -0.01600000075995922, -0.01600000075995922, 0.9920000471174717, 0.0, 0.0, 0.0, 0.0, 0.0, 1.7400587839391823E9, 0.0, 2025-02-20 13:39:43.939
63.0, 164.19095780467615, -109.27426685532555, 13.151358194183558, -96.5099883065559, -0.01600000075995922, -0.01600000075995922, 0.9920000471174717, 0.0, 0.0, 0.0, 0.0, 0.0, 1.7400587839394248E9, 0.0, 2025-02-20 13:39:43.939
64.0, -32.742824112065136, -335.3792684264481, 12.6539515000768, -110.32517874287441, -0.01600000075995922, -0.01600000075995922, 0.9920000471174717, 0.0, 0.0, 0.0, 0.0, 0.0, 1.740058783939813E9, 0.0, 2025-02-20 13:39:43.939
64.0, -82.49471322260797, -379.79058040026575, 14.396744879428297, 104.28150041447952, -0.01600000075995922, -0.01600000075995922, 0.9920000471174717, 0.0, 0.0, 0.0, 0.0, 0.0, 1.7400587839400723E9, 0.0, 2025-02-20 13:39:43.940
65.0, 121.27934571309015, -156.37456689728424, 13.031681395601481, 109.65573665080592, -0.01600000075995922, -0.01600000075995922, 0.9920000471174717, 0.0, 0.0, 0.0, 0.0, 0.0, 1.740058783969088E9, 0.0, 2025-02-20 13:39:43.969
65.0, 174.66267768060789, -108.4028701656498, 7.679884559009224, -104.04962661722675, -0.01600000075995922, -0.01600000075995922, 0.9920000471174717, 0.0, 0.0, 0.0, 0.0, 0.0, 1.7400587839692416E9, 0.0, 2025-02-20 13:39:43.969
66.0, -32.65306651312858, -324.3129044575617, 10.499769125599414, -107.4753749766387, -0.01600000075995922, -0.01600000075995922, 0.9920000471174717, 0.0, 0.0, 0.0, 0.0, 0.0, 1.7400587839695451E9, 0.0, 2025-02-20 13:39:43.969
66.0, -78.97546736430377, -383.57909905537963, 14.512681778054684, 103.64197752205655, -0.01600000075995922, -0.01600000075995922, 0.9920000471174717, 0.0, 0.0, 0.0, 0.0, 0.0, 1.7400587839697807E9, 0.0, 2025-02-20 13:39:43.969
67.0, 126.1150363557972, -174.5056018824689, 10.488549425732344, 113.79954580171034, -0.01600000075995922, -0.01600000075995922, 0.9920000471174717, 0.0, 0.0, 0.0, 0.0, 0.0, 1.7400587839700308E9, 0.0, 2025-02-20 13:39:43.970
67.0, 198.1118504027836, -117.39358965912834, 10.032281631138176, -101.11006525205448, -0.01600000075995922, -0.01600000075995922, 0.9920000471174717, 0.0, 0.0, 0.0, 0.0, 0.0, 1.7400587839701803E9, 0.0, 2025-02-20 13:39:43.970
68.0, -34.67635238915682, -340.6787066636607, 10.428711026441306, -101.68600984523073, -0.01600000075995922, -0.01600000075995922, 0.9920000471174717, 0.0, 0.0, 0.0, 0.0, 0.0, 1.7400587839708283E9, 0.0, 2025-02-20 13:39:43.970
68.0, -116.12389362417161, -407.95576696656644, 13.712343187537044, 108.98255465878174, -0.01600000075995922, -0.01600000075995922, 0.9920000471174717, 0.0, 0.0, 0.0, 0.0, 0.0, 1.7400587839709563E9, 0.0, 2025-02-20 13:39:43.970
69.0, -353.5776216108352, -167.9121582605876, 6.8608464687131345, 102.10861854022369, -0.01600000075995922, -0.01600000075995922, 0.9920000471174717, 0.0, 0.0, 0.0, 0.0, 0.0, 1.7400587839990597E9, 0.0, 2025-02-20 13:39:43.999
69.0, -319.35379711631685, -121.94504790520296, 6.24002307606861, -106.45064238877967, -0.01600000075995922, -0.01600000075995922, 0.9920000471174717, 0.0, 0.0, 0.0, 0.0, 0.0, 1.7400587839995024E9, 0.0, 2025-02-20 13:39:43.999
70.0, -524.212427039165, -334.47421263717115, 10.974736419972032, -114.1099574980326, -0.01600000075995922, -0.01600000075995922, 0.9920000471174717, 0.0, 0.0, 0.0, 0.0, 0.0, 1.740058783999676E9, 0.0, 2025-02-20 13:39:43.999
70.0, -568.7695951112546, -379.0426004091278, 12.414597902912647, 111.38731033029035, -0.01600000075995922, -0.01600000075995922, 0.9920000471174717, 0.0, 0.0, 0.0, 0.0, 0.0, 1.740058783999784E9, 0.0, 2025-02-20 13:39:43.999
71.0, -361.1396993212402, -146.43017291510478, 10.335213527549058, 111.1479567331262, -0.01600000075995922, 0.0, 0.9920000471174717, 0.0, 0.0, 0.0, 0.0, 0.0, 1.7400587840288012E9, 0.0, 2025-02-20 13:39:44.028
71.0, -315.14266976621, -93.3983915434219, 14.389265079516917, -96.58852620562539, -0.01600000075995922, 0.0, 0.9920000471174717, 0.0, 0.0, 0.0, 0.0, 0.0, 1.740058784028928E9, 0.0, 2025-02-20 13:39:44.028
72.0, -71.86591754853725, -336.9649860076606, 9.964963431935757, -103.49612142378464, 0.0, 0.0, 0.9920000471174717, 0.0, 0.0, 0.0, 0.0, 0.0, 1.7400587840291655E9, 0.0, 2025-02-20 13:39:44.029
72.0, -131.08349344693124, -394.8548974217847, 15.399038067553192, 111.92959582386538, 0.0, 0.0, 0.9920000471174717, 0.0, 0.0, 0.0, 0.0, 0.0, 1.740058784029728E9, 0.0, 2025-02-20 13:39:44.029
73.0, 96.13225841103122, -154.9833241137676, 10.828880321700126, 112.42700251797214, 0.0, 0.0, 0.9920000471174717, 0.0, 0.0, 0.0, 0.0, 0.0, 1.7400587840299103E9, 0.0, 2025-02-20 13:39:44.029
73.0, 162.395805825945, -88.3570064031519, 10.013582131359726, -96.18461701041088, 0.0, 0.0, 0.9920000471174717, 0.0, 0.0, 0.0, 0.0, 0.0, 1.7400587840301197E9, 0.0, 2025-02-20 13:39:44.030
74.0, -59.07545970007777, -319.16680211853236, 13.09151979489252, -98.82124647917226, 0.0, 0.0, 0.9920000471174717, 0.0, 0.0, 0.0, 0.0, 0.0, 1.740058784030764E9, 0.0, 2025-02-20 13:39:44.030
74.0, -115.25997673440725, -385.4004303338006, 13.413151191081852, 110.23916104389355, 0.0, 0.0, 0.9920000471174717, 0.0, 0.0, 0.0, 0.0, 0.0, 1.7400587840309217E9, 0.0, 2025-02-20 13:39:44.030
75.0, 107.98026147065684, -149.79234297527, 13.48794919019565, 110.38875704212114, 0.0, 0.0, 0.9920000471174717, 0.0, 0.0, 0.0, 0.0, 0.0, 1.7400587840589752E9, 0.0, 2025-02-20 13:39:44.058
75.0, 154.03338952502236, -87.71000371081755, 10.110819530207664, -102.72944193286821, 0.0, 0.0, 0.9920000471174717, 0.0, 0.0, 0.0, 0.0, 0.0, 1.7400587840591135E9, 0.0, 2025-02-20 13:39:44.059
76.0, -63.72415534500033, -317.3679102398455, 9.718130034860224, -101.61495174607262, 0.0, 0.0, 0.9920000471174717, 0.0, 0.0, 0.0, 0.0, 0.0, 1.7400587840594783E9, 0.0, 2025-02-20 13:39:44.059
76.0, -133.67150421626866, -386.08483202569187, 14.26958828093484, 109.00873395847157, 0.0, 0.0, 0.9920000471174717, 0.0, 0.0, 0.0, 0.0, 0.0, 1.7400587840598483E9, 0.0, 2025-02-20 13:39:44.059
77.0, 98.27896098559722, -146.7218851116486, 11.804994210135192, 110.75900713773444, 0.0, 0.0, 0.9920000471174717, 0.0, 0.0, 0.0, 0.0, 0.0, 1.740058784088852E9, 0.0, 2025-02-20 13:39:44.088
77.0, 165.48496318934485, -71.74063090002164, 8.124932653736323, -102.43024993641302, 0.0, 0.0, 0.9920000471174717, 0.0, 0.0, 0.0, 0.0, 0.0, 1.74005878408909E9, 0.0, 2025-02-20 13:39:44.089
78.0, -69.57709877565503, 171.2855480206199, 9.979923031758517, -101.20730265090242, 0.0, 0.0, 0.9920000471174717, 0.0, 0.0, 0.0, 0.0, 0.0, 1.7400587840892773E9, 0.0, 2025-02-20 13:39:44.089
78.0, -116.80829531606287, 97.66561739286408, 14.176090782042593, 106.18884939188138, 0.0, 0.0, 0.9920000471174717, 0.0, 0.0, 0.0, 0.0, 0.0, 1.7400587840893779E9, 0.0, 2025-02-20 13:39:44.089
79.0, 119.73102713143453, 337.4474331019446, 9.721869934815913, 106.34966508997604, 0.0, 0.0, 0.9920000471174717, 0.0, 0.0, 0.0, 0.0, 0.0, 1.7400587840899885E9, 0.0, 2025-02-20 13:39:44.089
79.0, 175.45553647121415, 407.5929966708645, 9.108526342082769, -107.40805677743629, 0.0, 0.0, 0.9920000471174717, 0.0, 0.0, 0.0, 0.0, 0.0, 1.740058784090265E9, 0.0, 2025-02-20 13:39:44.090
80.0, -65.7324816212058, 646.325770442374, 11.920931108761579, -103.02489402936772, 0.0, 0.0, 0.9920000471174717, 0.0, 0.0, 0.0, 0.0, 0.0, 1.7400587840910256E9, 0.0, 2025-02-20 13:39:44.091
80.0, -123.77198903355747, 582.5230771983042, 17.51956134242937, 105.43338960083202, 0.0, 0.0, 0.9920000471174717, 0.0, 0.0, 0.0, 0.0, 0.0, 1.7400587840912924E9, 0.0, 2025-02-20 13:39:44.091
81.0, 105.69144269777462, 357.1604457683861, 11.285148116294295, 96.75682170363143, 0.0, 0.0, 0.9920000471174717, 0.0, 0.0, 0.0, 0.0, 0.0, 1.7400587841195447E9, 0.0, 2025-02-20 13:39:44.119
81.0, 159.9798304545693, 410.0426311418414, 9.43389763822779, -111.30503253126517, 0.0, 0.0, 0.9920000471174717, 0.0, 0.0, 0.0, 0.0, 0.0, 1.740058784119694E9, 0.0, 2025-02-20 13:39:44.119
82.0, -74.20335502084345, 200.76343947136775, 10.226756428834051, -106.51796058798209, -0.01600000075995922, 0.0, 0.9920000471174717, 0.0, 0.0, 0.0, 0.0, 0.0, 1.7400587841489148E9, 0.0, 2025-02-20 13:39:44.148
82.0, -158.04443222749978, 162.96427061920986, 14.69967677583918, 110.91982283582911, -0.01600000075995922, 0.0, 0.9920000471174717, 0.0, 0.0, 0.0, 0.0, 0.0, 1.740058784149084E9, 0.0, 2025-02-20 13:39:44.149
83.0, 53.987325810361654, -45.030265416484326, 13.398191591259092, 103.89255081908777, -0.01600000075995922, 0.0, 0.9920000471174717, 0.0, 0.0, 0.0, 0.0, 0.0, 1.7400587841494431E9, 0.0, 2025-02-20 13:39:44.149
83.0, 111.09559813374653, 50.266125354450196, 10.036021531093866, -108.06627916963771, -0.01600000075995922, 0.0, 0.9920000471174717, 0.0, 0.0, 0.0, 0.0, 0.0, 1.740058784149608E9, 0.0, 2025-02-20 13:39:44.149
84.0, 345.7107420540415, -183.24761802889407, 9.123485941905528, -95.57875321758911, -0.01600000075995922, 0.0, 0.9920000471174717, 0.0, 0.0, 0.0, 0.0, 0.0, 1.7400587841500864E9, 0.0, 2025-02-20 13:39:44.150
84.0, 283.03749859659, -219.97343559376895, 11.88353210920468, 110.26160044362769, -0.01600000075995922, 0.0, 0.9920000471174717, 0.0, 0.0, 0.0, 0.0, 0.0, 1.7400587841503997E9, 0.0, 2025-02-20 13:39:44.150
85.0, 522.6958976071328, -449.48735597450286, 14.336906480137259, 99.20271627465263, -0.01600000075995922, 0.0, 0.9920000471174717, 0.0, 0.0, 0.0, 0.0, 0.0, 1.7400587841505723E9, 0.0, 2025-02-20 13:39:44.150
85.0, 598.638306107372, -367.7331429431215, 8.745756046380848, -112.83465161314234, -0.01600000075995922, 0.0, 0.9920000471174717, 0.0, 0.0, 0.0, 0.0, 0.0, 1.7400587841506836E9, 0.0, 2025-02-20 13:39:44.150
86.0, 834.2370437160134, -139.76380124408752, 10.432450926396996, -105.93453619489446, -0.01600000075995922, 0.0, 0.9920000471174717, 0.0, 0.0, 0.0, 0.0, 0.0, 1.7400587841512845E9, 0.0, 2025-02-20 13:39:44.151
86.0, 760.4824766898528, -206.79402814991772, 12.739969199057668, 104.79386670840904, -0.01600000075995922, 0.0, 0.9920000471174717, 0.0, 0.0, 0.0, 0.0, 0.0, 1.7400587841513925E9, 0.0, 2025-02-20 13:39:44.151
87.0, 527.2510957531631, -443.9223848404363, 10.735382822807878, 97.3963445960544, -0.01600000075995922, 0.0, 0.9920000471174717, 0.0, 0.0, 0.0, 0.0, 0.0, 1.7400587841789508E9, 0.0, 2025-02-20 13:39:44.178
87.0, 597.2171441242099, -384.1812229482457, 8.813074245583266, -113.79580590175465, -0.01600000075995922, 0.0, 0.9920000471174717, 0.0, 0.0, 0.0, 0.0, 0.0, 1.7400587841791651E9, 0.0, 2025-02-20 13:39:44.179
88.0, 842.3152276203036, -169.66804128978401, 11.543201213236898, -91.53218146553263, -0.01600000075995922, 0.0, 0.9920000471174717, 0.0, 0.0, 0.0, 0.0, 0.0, 1.7400587841795847E9, 0.0, 2025-02-20 13:39:44.179
88.0, 783.7371746143326, -253.34456289839, 10.66432472364977, 119.00922643998638, -0.01600000075995922, 0.0, 0.9920000471174717, 0.0, 0.0, 0.0, 0.0, 0.0, 1.7400587841797743E9, 0.0, 2025-02-20 13:39:44.179
89.0, 560.648402357474, -488.65906811039895, 11.939630608540028, 108.56742576370016, -0.01600000075995922, 0.0, 0.9920000471174717, 0.0, 0.0, 0.0, 0.0, 0.0, 1.7400587842090104E9, 0.0, 2025-02-20 13:39:44.209
89.0, 648.3939351178706, -417.9824387477711, 6.516775672789663, -100.68371665710583, -0.01600000075995922, 0.0, 0.9920000471174717, 0.0, 0.0, 0.0, 0.0, 0.0, 1.7400587842091968E9, 0.0, 2025-02-20 13:39:44.209
90.0, 886.8611759925261, -198.9103190433234, 10.424971126485616, -83.91400525579229, -0.01600000075995922, 0.0, 0.9920000471174717, 0.0, 0.0, 0.0, 0.0, 0.0, 1.7400587842094386E9, 0.0, 2025-02-20 13:39:44.209
90.0, 808.0540041262284, -278.6973446980119, 15.8777452618815, 126.09633685601875, -0.01600000075995922, 0.0, 0.9920000471174717, 0.0, 0.0, 0.0, 0.0, 0.0, 1.7400587842096395E9, 0.0, 2025-02-20 13:39:44.209
91.0, 589.7186447130516, -505.62325430940837, 8.910311644431204, 107.19114258000627, -0.01600000075995922, 0.0, 0.9920000471174717, 0.0, 0.0, 0.0, 0.0, 0.0, 1.740058784209825E9, 0.0, 2025-02-20 13:39:44.209
91.0, 660.2157588778064, -443.2080639488995, 7.743462858255953, -102.9575758301653, -0.01600000075995922, 0.0, 0.9920000471174717, 0.0, 0.0, 0.0, 0.0, 0.0, 1.7400587842099988E9, 0.0, 2025-02-20 13:39:44.209
92.0, 420.75557456491515, -233.69138863123953, 14.890411673579365, -83.59237385960296, 0.0, 0.0, 0.9920000471174717, 0.0, 0.0, 0.0, 0.0, 0.0, 1.7400587842109668E9, 0.0, 2025-02-20 13:39:44.210
