%OpenBCI Raw EXG Data
%Number of channels = 4
%Sample Rate = 200 Hz
%Board = OpenBCI_GUI$BoardGanglionNative
Sample Index, EXG Channel 0, EXG Channel 1, EXG Channel 2, EXG Channel 3, Accel Channel 0, Accel Channel 1, Accel Channel 2, Other, Other, Other, Other, Other, Timestamp, Marker Channel, Timestamp (Formatted)
0.0, 228.93797578755766, -33.962031497620046, 12.29866100428626, 16.109619059134275, 0.0, 0.0, 0.0, 0.0, 0.0, 0.0, 0.0, 0.0, 1.7400580739159527E9, 0.0, 2025-02-20 13:27:53.915
1.0, 150.82642531301826, -102.93326648045331, 12.534274701494724, 184.31909936619923, 0.0, -0.01600000075995922, 0.0, 0.0, 0.0, 0.0, 0.0, 0.0, 1.7400580739163184E9, 0.0, 2025-02-20 13:27:53.916
1.0, 326.7774985283613, 75.42630230635405, 8.67095804726705, 17.796313939150423, 0.0, -0.01600000075995922, 0.0, 0.0, 0.0, 0.0, 0.0, 0.0, 1.7400580739163644E9, 0.0, 2025-02-20 13:27:53.916
2.0, 407.1965672755614, 161.91896858159453, 7.231096564326435, -148.74517098767683, 0.0, -0.01600000075995922, 0.0, 0.0, 0.0, 0.0, 0.0, 0.0, 1.7400580739449067E9, 0.0, 2025-02-20 13:27:53.944
2.0, 233.070565238595, -17.985178886912763, 13.188757193740457, 0.42073874501511455, 0.0, -0.01600000075995922, 0.0, 0.0, 0.0, 0.0, 0.0, 0.0, 1.7400580739449754E9, 0.0, 2025-02-20 13:27:53.944
3.0, 155.8491109535098, -86.39916877634823, 13.697383587714285, 162.40702552581206, 0.0, -0.01600000075995922, 0.0, 0.0, 0.0, 0.0, 0.0, 0.0, 1.7400580739453268E9, 0.0, 2025-02-20 13:27:53.945
3.0, 331.65058817062527, 108.03822991997004, 10.937337420415133, 5.110573289450258, 0.0, -0.01600000075995922, 0.0, 0.0, 0.0, 0.0, 0.0, 0.0, 1.740058073945515E9, 0.0, 2025-02-20 13:27:53.945
4.0, 418.3900878429413, 173.87168883997947, 7.526548660825938, -160.75024984544143, 0.0, -0.01600000075995922, 0.0, 0.0, 0.0, 0.0, 0.0, 0.0, 1.7400580739458292E9, 0.0, 2025-02-20 13:27:53.945
4.0, 223.7395148491487, -14.151781432330608, 11.636698712129146, 2.369226621929556, 0.0, -0.01600000075995922, 0.0, 0.0, 0.0, 0.0, 0.0, 0.0, 1.7400580739458745E9, 0.0, 2025-02-20 13:27:53.945
5.0, 158.3735434236005, -86.86665627080947, 12.530534801539034, 171.88393201353028, 0.0, -0.01600000075995922, 0.0, 0.0, 0.0, 0.0, 0.0, 0.0, 1.7400580739467576E9, 0.0, 2025-02-20 13:27:53.946
5.0, 336.3890414144844, 110.15875319484621, 11.09441321855411, 9.650811835657805, 0.0, -0.01600000075995922, 0.0, 0.0, 0.0, 0.0, 0.0, 0.0, 1.7400580739468355E9, 0.0, 2025-02-20 13:27:53.946
6.0, 404.21212711092085, 168.32541720569134, 7.45923046162352, -155.15909941168502, 0.0, -0.01600000075995922, 0.0, 0.0, 0.0, 0.0, 0.0, 0.0, 1.7400580739749372E9, 0.0, 2025-02-20 13:27:53.974
6.0, 221.33849907759577, -15.29993071872741, 14.359345879871398, 13.832019986119121, 0.0, -0.01600000075995922, 0.0, 0.0, 0.0, 0.0, 0.0, 0.0, 1.740058073975044E9, 0.0, 2025-02-20 13:27:53.975
7.0, 152.5131201930344, -85.49785288702697, 10.982216219883412, 171.52490161778405, 0.0, -0.01600000075995922, 0.0, 0.0, 0.0, 0.0, 0.0, 0.0, 1.740058073975246E9, 0.0, 2025-02-20 13:27:53.975
7.0, 340.0204842714593, 108.91710640955716, 10.058460930828005, 6.266202375758439, 0.0, -0.01600000075995922, 0.0, 0.0, 0.0, 0.0, 0.0, 0.0, 1.7400580739752843E9, 0.0, 2025-02-20 13:27:53.975
8.0, 405.367756197229, 174.35413593426347, 7.7472027582116425, -144.98657153220847, 0.0, -0.01600000075995922, 0.0, 0.0, 0.0, 0.0, 0.0, 0.0, 1.7400580740048409E9, 0.0, 2025-02-20 13:27:54.004
8.0, 223.02145405765623, -28.494297762401402, 14.965209672693163, 19.07909962395206, 0.0, -0.01600000075995922, 0.0, 0.0, 0.0, 0.0, 0.0, 0.0, 1.7400580740049026E9, 0.0, 2025-02-20 13:27:54.004
9.0, 146.98180815856904, -85.46045388747007, 12.313620604109019, 176.96271615335718, 0.0, -0.01600000075995922, 0.0, 0.0, 0.0, 0.0, 0.0, 0.0, 1.7400580740050964E9, 0.0, 2025-02-20 13:27:54.005
9.0, 340.0429236711934, 110.66737958882004, 10.402531726751477, 14.075113483238965, 0.0, -0.01600000075995922, 0.0, 0.0, 0.0, 0.0, 0.0, 0.0, 1.7400580740051575E9, 0.0, 2025-02-20 13:27:54.005
10.0, 405.042384901084, 175.16943412460387, 8.555021148640662, -153.17321253521368, 0.0, -0.01600000075995922, 0.9920000471174717, 0.0, 0.0, 0.0, 0.0, 0.0, 1.7400580740057647E9, 0.0, 2025-02-20 13:27:54.005
10.0, 208.08429363463074, -30.64848013687879, 10.67180452356115, 7.421831462066621, 0.0, -0.01600000075995922, 0.9920000471174717, 0.0, 0.0, 0.0, 0.0, 0.0, 1.7400580740058353E9, 0.0, 2025-02-20 13:27:54.005
11.0, 141.9142437186092, -93.76677168905735, 16.995975348632783, 165.615859687794, 0.0, -0.01600000075995922, 0.9920000471174717, 0.0, 0.0, 0.0, 0.0, 0.0, 1.740058074006594E9, 0.0, 2025-02-20 13:27:54.006
11.0, 337.77280439808965, 120.34250077418983, 14.449103478807956, 10.727903022896498, 0.0, -0.01600000075995922, 0.9920000471174717, 0.0, 0.0, 0.0, 0.0, 0.0, 1.740058074006667E9, 0.0, 2025-02-20 13:27:54.006
12.0, 405.4126349966973, 177.57792969606817, 10.64188532391563, -152.94881853787228, 0.0, -0.01600000075995922, 0.9920000471174717, 0.0, 0.0, 0.0, 0.0, 0.0, 1.7400580740347185E9, 0.0, 2025-02-20 13:27:54.034
12.0, 204.17983808089048, -43.97748357895762, 12.182724105659872, 18.544293930288404, 0.0, -0.01600000075995922, 0.9920000471174717, 0.0, 0.0, 0.0, 0.0, 0.0, 1.7400580740348008E9, 0.0, 2025-02-20 13:27:54.034
13.0, 135.89674468990415, -93.51993829198182, 14.950250072870404, 174.6925968802534, 0.0, -0.01600000075995922, 0.9920000471174717, 0.0, 0.0, 0.0, 0.0, 0.0, 1.7400580740352945E9, 0.0, 2025-02-20 13:27:54.035
13.0, 338.9359132843092, 116.43430532049388, 12.24256250495091, -1.131319736596197, 0.0, -0.01600000075995922, 0.9920000471174717, 0.0, 0.0, 0.0, 0.0, 0.0, 1.74005807403573E9, 0.0, 2025-02-20 13:27:54.035
14.0, 397.480307190679, 171.47067306842655, 9.403978438582271, -147.9747515968047, 0.0, -0.01600000075995922, 0.9920000471174717, 0.0, 0.0, 0.0, 0.0, 0.0, 1.7400580740662827E9, 0.0, 2025-02-20 13:27:54.066
14.0, 195.99693697784096, -46.79362824559212, 10.892458620946854, 23.56323967082426, 0.0, -0.01600000075995922, 0.9920000471174717, 0.0, 0.0, 0.0, 0.0, 0.0, 1.7400580740667489E9, 0.0, 2025-02-20 13:27:54.066
15.0, 138.60817215777934, -105.58859544899315, 16.491088854614645, 172.55711400555447, 0.0, -0.01600000075995922, 0.9920000471174717, 0.0, 0.0, 0.0, 0.0, 0.0, 1.7400580740670476E9, 0.0, 2025-02-20 13:27:54.067
15.0, 348.9476254656911, 122.87815294414759, 11.999469007831067, -7.418091562110931, 0.0, -0.01600000075995922, 0.9920000471174717, 0.0, 0.0, 0.0, 0.0, 0.0, 1.740058074067125E9, 0.0, 2025-02-20 13:27:54.067
16.0, 408.3447165619582, 169.5259250914678, 9.000069243367761, -154.725271016825, 0.0, -0.01600000075995922, 0.9920000471174717, 0.0, 0.0, 0.0, 0.0, 0.0, 1.7400580740681555E9, 0.0, 2025-02-20 13:27:54.068
16.0, 198.6111270468682, -50.054821006953716, 12.766148498747498, 7.171258165035397, 0.0, -0.01600000075995922, 0.9920000471174717, 0.0, 0.0, 0.0, 0.0, 0.0, 1.740058074068226E9, 0.0, 2025-02-20 13:27:54.068
17.0, 146.79855306074023, -95.46468626894057, 14.183570581953973, 160.71659074584022, 0.0, -0.01600000075995922, 0.9920000471174717, 0.0, 0.0, 0.0, 0.0, 0.0, 1.7400580740684247E9, 0.0, 2025-02-20 13:27:54.068
17.0, 362.44866430573165, 132.19798363372684, 6.804747969377786, -17.08573294756934, 0.0, -0.01600000075995922, 0.9920000471174717, 0.0, 0.0, 0.0, 0.0, 0.0, 1.7400580740684772E9, 0.0, 2025-02-20 13:27:54.068
18.0, 409.3395299501717, 178.37452838663012, 8.783155045937747, -167.45215056603774, 0.0, -0.01600000075995922, 0.9920000471174717, 0.0, 0.0, 0.0, 0.0, 0.0, 1.7400580740946946E9, 0.0, 2025-02-20 13:27:54.094
18.0, 201.2103575160727, -35.985317373648286, 15.215782969724387, -1.3781531336717308, 0.0, -0.01600000075995922, 0.9920000471174717, 0.0, 0.0, 0.0, 0.0, 0.0, 1.740058074094748E9, 0.0, 2025-02-20 13:27:54.094
19.0, 144.27038069069386, -96.0481106620282, 15.458876466844231, 151.1611463590525, 0.0, -0.01600000075995922, 0.9920000471174717, 0.0, 0.0, 0.0, 0.0, 0.0, 1.7400580740952432E9, 0.0, 2025-02-20 13:27:54.095
19.0, 363.07322759833187, 140.5080413352698, 9.88642553286627, -11.281408216338605, 0.0, -0.01600000075995922, 0.9920000471174717, 0.0, 0.0, 0.0, 0.0, 0.0, 1.7400580740952983E9, 0.0, 2025-02-20 13:27:54.095
20.0, 426.99933754093945, 189.51195045467466, 10.443670626264066, -166.12448608176783, 0.0, -0.01600000075995922, 0.5120000243186951, 0.0, 0.0, 0.0, 0.0, 0.0, 1.740058074124916E9, 0.0, 2025-02-20 13:27:54.124
20.0, 197.00297006592155, -42.7620160933584, 12.425817602779716, 5.278868787456304, 0.0, -0.01600000075995922, 0.5120000243186951, 0.0, 0.0, 0.0, 0.0, 0.0, 1.7400580741250176E9, 0.0, 2025-02-20 13:27:54.125
21.0, 137.15335107501596, -89.09189674444497, 14.2845478807576, 165.82903398526832, 0.0, 0.0, 0.5120000243186951, 0.0, 0.0, 0.0, 0.0, 0.0, 1.7400580741252384E9, 0.0, 2025-02-20 13:27:54.125
21.0, 359.236090243794, 141.96660231798887, 10.765302022453398, -9.220723340753466, 0.0, 0.0, 0.5120000243186951, 0.0, 0.0, 0.0, 0.0, 0.0, 1.740058074125287E9, 0.0, 2025-02-20 13:27:54.125
22.0, 419.26148453261703, 199.21699083968997, 7.474190061446279, -160.7652094452642, 0.0, 0.0, 0.5120000243186951, 0.0, 0.0, 0.0, 0.0, 0.0, 1.7400580741260235E9, 0.0, 2025-02-20 13:27:54.126
22.0, 180.55862996075302, 439.64954914106056, 14.340646380092949, 9.400238538626581, 0.0, 0.0, 0.5120000243186951, 0.0, 0.0, 0.0, 0.0, 0.0, 1.740058074126155E9, 0.0, 2025-02-20 13:27:54.126
23.0, 128.49174277763814, 392.52680969936773, 15.687010364141315, 160.95220444304869, 0.0, 0.0, 0.5120000243186951, 0.0, 0.0, 0.0, 0.0, 0.0, 1.7400580741269083E9, 0.0, 2025-02-20 13:27:54.126
23.0, 362.77777550183237, 148.68720253836364, 13.304694092366844, -9.216983440797776, 0.0, 0.0, 0.5120000243186951, 0.0, 0.0, 0.0, 0.0, 0.0, 1.740058074126978E9, 0.0, 2025-02-20 13:27:54.126
24.0, 412.4922656128183, 187.62704087700695, 9.822847233619541, -157.04026908939704, 0.0, 0.0, 0.5120000243186951, 0.0, 0.0, 0.0, 0.0, 0.0, 1.7400580741551557E9, 0.0, 2025-02-20 13:27:54.155
24.0, 175.67058071866632, -53.738622463308275, 11.109372818376869, 21.734428592491895, 0.0, 0.0, 0.5120000243186951, 0.0, 0.0, 0.0, 0.0, 0.0, 1.74005807415535E9, 0.0, 2025-02-20 13:27:54.155
25.0, 127.30619449168444, -102.34610218741, 16.371412056032568, 164.62852609949186, 0.0, 0.0, 0.5120000243186951, 0.0, 0.0, 0.0, 0.0, 0.0, 1.740058074155444E9, 0.0, 2025-02-20 13:27:54.155
25.0, 361.8353207129985, -339.6334046260454, 12.67639089981094, -7.608826459851116, 0.0, 0.0, 0.5120000243186951, 0.0, 0.0, 0.0, 0.0, 0.0, 1.7400580741556044E9, 0.0, 2025-02-20 13:27:54.155
26.0, 414.81100358534604, -299.235005304683, 9.84528663335368, -163.21858381619677, 0.0, 0.0, 0.5120000243186951, 0.0, 0.0, 0.0, 0.0, 0.0, 1.7400580741846502E9, 0.0, 2025-02-20 13:27:54.184
26.0, 173.60989584308118, -539.3403223599307, 12.354759503621608, 11.251489016693085, 0.0, 0.0, 0.5120000243186951, 0.0, 0.0, 0.0, 0.0, 0.0, 1.7400580741848829E9, 0.0, 2025-02-20 13:27:54.184
27.0, 126.62927259970456, -579.1104184887372, 9.246902640443295, 156.73359729303047, 0.0, 0.0, 0.5120000243186951, 0.0, 0.0, 0.0, 0.0, 0.0, 1.7400580741850076E9, 0.0, 2025-02-20 13:27:54.185
27.0, -114.58492479240522, -817.4336732150987, 11.154251617845148, -19.602685617748648, 0.0, 0.0, 0.5120000243186951, 0.0, 0.0, 0.0, 0.0, 0.0, 1.7400580741851277E9, 0.0, 2025-02-20 13:27:54.185
28.0, -64.7544977827929, -777.3756047897041, 11.962070008274168, -174.37844528397545, 0.0, 0.0, 0.5120000243186951, 0.0, 0.0, 0.0, 0.0, 0.0, 1.7400580741857777E9, 0.0, 2025-02-20 13:27:54.185
28.0, -299.14150780579075, -532.4327271417715, 12.624032300431281, -3.457537509035319, 0.0, 0.0, 0.5120000243186951, 0.0, 0.0, 0.0, 0.0, 0.0, 1.7400580741858149E9, 0.0, 2025-02-20 13:27:54.185
29.0, -328.42118455888703, -557.0674481499009, 16.72670255182311, 129.91103481082246, 0.0, 0.0, 0.5120000243186951, 0.0, 0.0, 0.0, 0.0, 0.0, 1.7400580741866815E9, 0.0, 2025-02-20 13:27:54.186
29.0, -523.6832311954349, -735.140914590098, 12.078006906900555, -114.42036919435486, 0.0, 0.0, 0.5120000243186951, 0.0, 0.0, 0.0, 0.0, 0.0, 1.740058074186804E9, 0.0, 2025-02-20 13:27:54.186
30.0, -372.12752539105713, -602.486663161777, 8.895352044608444, -348.20151542453095, 0.0, 0.0, 0.7520000357180834, 0.0, 0.0, 0.0, 0.0, 0.0, 1.7400580742148187E9, 0.0, 2025-02-20 13:27:54.214
30.0, -604.5810071369633, -847.25563546177, 12.758668698836118, -103.46246232418343, 0.0, 0.0, 0.7520000357180834, 0.0, 0.0, 0.0, 0.0, 0.0, 1.740058074215014E9, 0.0, 2025-02-20 13:27:54.215
31.0, -703.0637926701456, -935.6631305143237, 15.372858767863363, 109.8090725489892, 0.0, 0.0, 0.7520000357180834, 0.0, 0.0, 0.0, 0.0, 0.0, 1.7400580742153642E9, 0.0, 2025-02-20 13:27:54.215
31.0, -491.4864324769005, -721.0190523574129, 9.763008834328502, -39.5176528817974, 0.0, 0.0, 0.7520000357180834, 0.0, 0.0, 0.0, 0.0, 0.0, 1.740058074215433E9, 0.0, 2025-02-20 13:27:54.215
32.0, -475.8199915625155, -718.7152739847079, 8.469003449659795, -163.59257381176576, 0.0, 0.0, 0.7520000357180834, 0.0, 0.0, 0.0, 0.0, 0.0, 1.7400580742448163E9, 0.0, 2025-02-20 13:27:54.244
32.0, -279.39857593970373, -525.2633389267139, 12.538014601450413, 22.897537478711456, 0.0, 0.0, 0.7520000357180834, 0.0, 0.0, 0.0, 0.0, 0.0, 1.7400580742448924E9, 0.0, 2025-02-20 13:27:54.244
33.0, -336.8509190590121, -567.5541276256554, 13.345832991879433, 172.82638680236414, 0.0, 0.0, 0.7520000357180834, 0.0, 0.0, 0.0, 0.0, 0.0, 1.7400580742449403E9, 0.0, 2025-02-20 13:27:54.244
33.0, -100.0292341648601, -803.4838463803753, 14.378045379649848, -7.163778365124017, 0.0, 0.0, 0.7520000357180834, 0.0, 0.0, 0.0, 0.0, 0.0, 1.7400580742449903E9, 0.0, 2025-02-20 13:27:54.244
34.0, -70.11751431925222, -779.9897948587313, 10.533428225200623, -149.8297419748269, 0.0, 0.0, 0.7520000357180834, 0.0, 0.0, 0.0, 0.0, 0.0, 1.740058074245752E9, 0.0, 2025-02-20 13:27:54.245
34.0, 159.01680621597916, -569.4614766030572, 15.683270464185625, 28.40641011344269, 0.0, 0.0, 0.7520000357180834, 0.0, 0.0, 0.0, 0.0, 0.0, 1.7400580742458096E9, 0.0, 2025-02-20 13:27:54.245
35.0, 116.86439381539822, -596.672988680657, 12.979322796221823, 177.60971884569153, 0.0, 0.0, 0.7520000357180834, 0.0, 0.0, 0.0, 0.0, 0.0, 1.7400580742465303E9, 0.0, 2025-02-20 13:27:54.246
35.0, -116.90366276493296, -812.9083942687139, 10.185617529321462, 1.1387995365075767, 0.0, 0.0, 0.7520000357180834, 0.0, 0.0, 0.0, 0.0, 0.0, 1.740058074246598E9, 0.0, 2025-02-20 13:27:54.246
36.0, -79.79263550462201, -780.8761511482298, 9.093566742260009, -138.9354134039022, 0.0, 0.0, 0.7520000357180834, 0.0, 0.0, 0.0, 0.0, 0.0, 1.7400580742751052E9, 0.0, 2025-02-20 13:27:54.275
36.0, 142.82677930779755, -579.2113957875408, 16.850119250360876, 39.32691798405722, 0.0, 0.0, 0.7520000357180834, 0.0, 0.0, 0.0, 0.0, 0.0, 1.7400580742752044E9, 0.0, 2025-02-20 13:27:54.275
37.0, 92.21471320744604, -609.7476789257489, 10.099599830340594, 176.31197356106713, 0.0, 0.0, 0.7520000357180834, 0.0, 0.0, 0.0, 0.0, 0.0, 1.7400580742753162E9, 0.0, 2025-02-20 13:27:54.275
37.0, -121.6682953084819, -822.4750583553687, 12.893305097240955, -1.9391381270252168, 0.0, 0.0, 0.7520000357180834, 0.0, 0.0, 0.0, 0.0, 0.0, 1.7400580742754853E9, 0.0, 2025-02-20 13:27:54.275
38.0, -92.8037474504672, -797.4476478518918, 4.669265094678849, -151.36310095665976, 0.0, 0.0, 0.7520000357180834, 0.0, 0.0, 0.0, 0.0, 0.0, 1.7400580743047535E9, 0.0, 2025-02-20 13:27:54.304
38.0, 124.8378605209291, -590.3263784558512, 10.855059621389955, 24.543093459215015, 0.0, 0.0, 0.7520000357180834, 0.0, 0.0, 0.0, 0.0, 0.0, 1.740058074304828E9, 0.0, 2025-02-20 13:27:54.304
39.0, 99.61597521975636, -611.7298259022646, 13.738522487226874, 170.97139642434195, 0.0, 0.0, 0.7520000357180834, 0.0, 0.0, 0.0, 0.0, 0.0, 1.740058074304946E9, 0.0, 2025-02-20 13:27:54.304
39.0, -123.6317427852191, -825.2388444226235, 9.355359739158303, -11.258968816604465, 0.0, 0.0, 0.7520000357180834, 0.0, 0.0, 0.0, 0.0, 0.0, 1.740058074304994E9, 0.0, 2025-02-20 13:27:54.304
40.0, -93.63774514058605, -801.0080326097086, 12.28744130441919, -149.26501708151773, 0.0, 0.0, 0.8800000417977571, 0.0, 0.0, 0.0, 0.0, 0.0, 1.7400580743059545E9, 0.0, 2025-02-20 13:27:54.305
40.0, 111.09746808372438, -599.6200298457406, 12.448257002513856, 28.619584410917014, 0.0, 0.0, 0.8800000417977571, 0.0, 0.0, 0.0, 0.0, 0.0, 1.7400580743061075E9, 0.0, 2025-02-20 13:27:54.306
41.0, 89.9333742344752, -627.6954588131048, 11.199130417313427, 163.08394741779193, 0.0, -0.01600000075995922, 0.8800000417977571, 0.0, 0.0, 0.0, 0.0, 0.0, 1.7400580743073745E9, 0.0, 2025-02-20 13:27:54.307
41.0, -118.19392824964598, -817.1830999180675, 7.107679865788668, -17.717776040080935, 0.0, -0.01600000075995922, 0.8800000417977571, 0.0, 0.0, 0.0, 0.0, 0.0, 1.7400580743074608E9, 0.0, 2025-02-20 13:27:54.307
42.0, -82.61999987112358, -791.6208837209269, 10.761562122497708, -155.51065000751987, 0.0, -0.01600000075995922, 0.8800000417977571, 0.0, 0.0, 0.0, 0.0, 0.0, 1.740058074334709E9, 0.0, 2025-02-20 13:27:54.334
42.0, 131.8726123375818, -589.9748278600164, 11.04579451913014, 32.74469406204298, 0.0, -0.01600000075995922, 0.8800000417977571, 0.0, 0.0, 0.0, 0.0, 0.0, 1.7400580743347678E9, 0.0, 2025-02-20 13:27:54.334
43.0, 93.87896868772805, -616.0381906512193, 12.336060003843158, 170.18975733360276, 0.0, -0.01600000075995922, 0.8800000417977571, 0.0, 0.0, 0.0, 0.0, 0.0, 1.7400580743351865E9, 0.0, 2025-02-20 13:27:54.335
43.0, -117.09813756262884, -816.7717109229416, 8.147372053470463, -11.573120412882417, 0.0, -0.01600000075995922, 0.8800000417977571, 0.0, 0.0, 0.0, 0.0, 0.0, 1.7400580743352575E9, 0.0, 2025-02-20 13:27:54.335
44.0, -93.68262394005433, -805.1929806601256, 9.02998844301328, -151.0938281598501, 0.0, -0.01600000075995922, 0.8800000417977571, 0.0, 0.0, 0.0, 0.0, 0.0, 1.7400580743648884E9, 0.0, 2025-02-20 13:27:54.364
44.0, 111.77438997570425, -612.6909801908769, 14.479022678453475, 34.40146974241361, 0.0, -0.01600000075995922, 0.8800000417977571, 0.0, 0.0, 0.0, 0.0, 0.0, 1.740058074364968E9, 0.0, 2025-02-20 13:27:54.364
45.0, 85.63996908534318, -628.8211686997674, 14.407964579295367, 171.09107322292402, 0.0, -0.01600000075995922, 0.8800000417977571, 0.0, 0.0, 0.0, 0.0, 0.0, 1.7400580743650796E9, 0.0, 2025-02-20 13:27:54.365
45.0, -121.1895881141536, -827.0526959011331, 14.28080798080191, -6.542954972479492, 0.0, -0.01600000075995922, 0.8800000417977571, 0.0, 0.0, 0.0, 0.0, 0.0, 1.740058074365118E9, 0.0, 2025-02-20 13:27:54.365
46.0, -83.58115415973589, -804.8937886636704, 13.824540186207741, -140.36031528702006, 0.0, -0.01600000075995922, 0.8800000417977571, 0.0, 0.0, 0.0, 0.0, 0.0, 1.7400580743656633E9, 0.0, 2025-02-20 13:27:54.365
46.0, 110.88803368620574, -622.9083868698217, 11.804994210135192, 47.42754128808156, 0.0, -0.01600000075995922, 0.8800000417977571, 0.0, 0.0, 0.0, 0.0, 0.0, 1.7400580743657057E9, 0.0, 2025-02-20 13:27:54.365
47.0, 83.31749121285975, -643.2123037292622, 13.562747189309448, 187.06044603371993, 0.0, -0.01600000075995922, 0.8800000417977571, 0.0, 0.0, 0.0, 0.0, 0.0, 1.7400580743664734E9, 0.0, 2025-02-20 13:27:54.366
47.0, -108.54872626392171, -835.7517031980678, 11.531981513369828, 12.440777202602476, 0.0, -0.01600000075995922, 0.8800000417977571, 0.0, 0.0, 0.0, 0.0, 0.0, 1.740058074366518E9, 0.0, 2025-02-20 13:27:54.366
48.0, -84.01498255459592, -815.7469783350825, 11.348726415541023, -130.2625854066573, 0.0, -0.01600000075995922, 0.8800000417977571, 0.0, 0.0, 0.0, 0.0, 0.0, 1.7400580743948023E9, 0.0, 2025-02-20 13:27:54.394
48.0, 115.39087323285639, -631.2558435709216, 14.28080798080191, 49.043178068939596, 0.0, -0.01600000075995922, 0.8800000417977571, 0.0, 0.0, 0.0, 0.0, 0.0, 1.7400580743949656E9, 0.0, 2025-02-20 13:27:54.394
49.0, 80.03011915180832, -639.9997296673246, 10.454890326131135, 180.2500882144086, 0.0, -0.01600000075995922, 0.8800000417977571, 0.0, 0.0, 0.0, 0.0, 0.0, 1.7400580743952818E9, 0.0, 2025-02-20 13:27:54.395
49.0, -103.54474012320861, -824.2776901340112, 10.095859930384904, -8.483963049482554, 0.0, -0.01600000075995922, 0.8800000417977571, 0.0, 0.0, 0.0, 0.0, 0.0, 1.74005807439533E9, 0.0, 2025-02-20 13:27:54.395
50.0, -84.22815685207024, -808.0689637260512, 9.774228534195572, -145.54381662560627, 0.0, -0.01600000075995922, 0.944000044837594, 0.0, 0.0, 0.0, 0.0, 0.0, 1.7400580744246876E9, 0.0, 2025-02-20 13:27:54.424
50.0, 104.27589056454599, -626.5921883261763, 15.279361268971115, 39.061385087203234, 0.0, -0.01600000075995922, 0.944000044837594, 0.0, 0.0, 0.0, 0.0, 0.0, 1.7400580744248033E9, 0.0, 2025-02-20 13:27:54.424
51.0, 90.599076426588, -631.5363360675983, 11.232789516914636, 170.26829523267224, 0.0, -0.01600000075995922, 0.944000044837594, 0.0, 0.0, 0.0, 0.0, 0.0, 1.7400580744250827E9, 0.0, 2025-02-20 13:27:54.425
51.0, -96.2855943092145, -809.1385751133785, 8.973889943677932, -17.96460943715647, 0.0, -0.01600000075995922, 0.944000044837594, 0.0, 0.0, 0.0, 0.0, 0.0, 1.7400580744251308E9, 0.0, 2025-02-20 13:27:54.425
52.0, -76.16867244755849, -799.3138579297811, 13.959176584612578, -150.8320351629518, -0.01600000075995922, -0.01600000075995922, 0.944000044837594, 0.0, 0.0, 0.0, 0.0, 0.0, 1.7400580744257503E9, 0.0, 2025-02-20 13:27:54.425
52.0, 102.29000368807465, -622.7288716719486, 9.931304332334548, 31.701261974405497, -0.01600000075995922, -0.01600000075995922, 0.944000044837594, 0.0, 0.0, 0.0, 0.0, 0.0, 1.740058074425826E9, 0.0, 2025-02-20 13:27:54.425
53.0, 88.17188135534525, -626.1695796311833, 13.259815292898566, 164.55746800033376, -0.01600000075995922, -0.01600000075995922, 0.944000044837594, 0.0, 0.0, 0.0, 0.0, 0.0, 1.7400580744266884E9, 0.0, 2025-02-20 13:27:54.426
53.0, -82.10763357719406, -799.1904412312433, 13.027941495645791, -25.93433624273166, -0.01600000075995922, -0.01600000075995922, 0.944000044837594, 0.0, 0.0, 0.0, 0.0, 0.0, 1.7400580744267464E9, 0.0, 2025-02-20 13:27:54.426
54.0, -76.78949584020302, -796.3219379652292, 8.895352044608444, -157.76954958075657, -0.01600000075995922, -0.01600000075995922, 0.944000044837594, 0.0, 0.0, 0.0, 0.0, 0.0, 1.7400580744547553E9, 0.0, 2025-02-20 13:27:54.454
54.0, 103.65880707185715, -624.5876019499265, 12.736229299101979, 35.61319732805714, -0.01600000075995922, -0.01600000075995922, 0.944000044837594, 0.0, 0.0, 0.0, 0.0, 0.0, 1.740058074454986E9, 0.0, 2025-02-20 13:27:54.454
55.0, 101.36250849906355, -618.0857858769596, 15.978722560685128, 162.44442452536896, -0.01600000075995922, -0.01600000075995922, 0.944000044837594, 0.0, 0.0, 0.0, 0.0, 0.0, 1.7400580744553137E9, 0.0, 2025-02-20 13:27:54.455
55.0, -81.78600218100473, -783.7465243642218, 8.199730652850121, -23.660477069672197, -0.01600000075995922, -0.01600000075995922, 0.944000044837594, 0.0, 0.0, 0.0, 0.0, 0.0, 1.7400580744553654E9, 0.0, 2025-02-20 13:27:54.455
56.0, -68.65521343657747, -783.7521342141554, 10.615706024225801, -150.80585586326197, -0.01600000075995922, -0.01600000075995922, 0.944000044837594, 0.0, 0.0, 0.0, 0.0, 0.0, 1.740058074484881E9, 0.0, 2025-02-20 13:27:54.484
56.0, 92.73455930128694, -628.7501106006093, 11.8760523092933, 35.14196993364021, -0.01600000075995922, -0.01600000075995922, 0.944000044837594, 0.0, 0.0, 0.0, 0.0, 0.0, 1.740058074484959E9, 0.0, 2025-02-20 13:27:54.484
57.0, 90.79355122428387, -625.015820494853, 12.055567507166415, 161.73384353378788, -0.01600000075995922, -0.01600000075995922, 0.944000044837594, 0.0, 0.0, 0.0, 0.0, 0.0, 1.74005807448509E9, 0.0, 2025-02-20 13:27:54.485
57.0, -71.47509800316766, -791.4918571724556, 10.181877629365772, -30.919622883666307, -0.01600000075995922, -0.01600000075995922, 0.944000044837594, 0.0, 0.0, 0.0, 0.0, 0.0, 1.7400580744851272E9, 0.0, 2025-02-20 13:27:54.485
58.0, -72.73357433825731, -783.6231076656841, 10.361392827238888, -151.4229393559508, -0.01600000075995922, -0.01600000075995922, 0.944000044837594, 0.0, 0.0, 0.0, 0.0, 0.0, 1.7400580744856777E9, 0.0, 2025-02-20 13:27:54.485
58.0, 95.55631381785497, -638.112950139679, 14.378045379649848, 43.71008073212579, -0.01600000075995922, -0.01600000075995922, 0.944000044837594, 0.0, 0.0, 0.0, 0.0, 0.0, 1.7400580744857144E9, 0.0, 2025-02-20 13:27:54.485
59.0, 90.08484018268064, -625.1411071433686, 17.5457406421192, 171.5847400170751, -0.01600000075995922, -0.01600000075995922, 0.944000044837594, 0.0, 0.0, 0.0, 0.0, 0.0, 1.7400580744866512E9, 0.0, 2025-02-20 13:27:54.486
59.0, -80.7444400433451, -785.2443542964756, 10.050981130916625, -19.756021515931934, -0.01600000075995922, -0.01600000075995922, 0.944000044837594, 0.0, 0.0, 0.0, 0.0, 0.0, 1.7400580744866855E9, 0.0, 2025-02-20 13:27:54.486
60.0, -84.81906104506925, -790.4783442844637, 6.995482867117971, -148.09442839538679, -0.01600000075995922, -0.01600000075995922, 0.9600000455975533, 0.0, 0.0, 0.0, 0.0, 0.0, 1.7400580745146668E9, 0.0, 2025-02-20 13:27:54.514
60.0, 89.09563664440066, -632.3871633075178, 14.497722178231925, 53.938707110937685, -0.01600000075995922, -0.01600000075995922, 0.9600000455975533, 0.0, 0.0, 0.0, 0.0, 0.0, 1.740058074514742E9, 0.0, 2025-02-20 13:27:54.514
61.0, 87.91008835844696, -625.1037081438117, 7.208657164592296, 172.18686390994117, -0.01600000075995922, 0.0, 0.9600000455975533, 0.0, 0.0, 0.0, 0.0, 0.0, 1.7400580745154152E9, 0.0, 2025-02-20 13:27:54.515
61.0, -72.84016148699448, -782.7236617263407, 10.791481322143227, -27.684609421994537, -0.01600000075995922, 0.0, 0.9600000455975533, 0.0, 0.0, 0.0, 0.0, 0.0, 1.74005807451548E9, 0.0, 2025-02-20 13:27:54.515
62.0, -73.91164282429963, -788.8253085040487, 12.317360504064709, -149.70258537633345, 0.0, 0.0, 0.9600000455975533, 0.0, 0.0, 0.0, 0.0, 0.0, 1.7400580745450776E9, 0.0, 2025-02-20 13:27:54.545
62.0, 85.07337424205616, -633.8906030897051, 13.757221987005323, 43.95317422924563, 0.0, 0.0, 0.9600000455975533, 0.0, 0.0, 0.0, 0.0, 0.0, 1.7400580745451527E9, 0.0, 2025-02-20 13:27:54.545
63.0, 88.91238154657185, -623.929379557725, 11.07571371877566, 163.5813541118987, 0.0, 0.0, 0.9600000455975533, 0.0, 0.0, 0.0, 0.0, 0.0, 1.7400580745455527E9, 0.0, 2025-02-20 13:27:54.545
63.0, -69.1974989301525, -775.6926498096436, 8.480223149526864, -35.067171934526414, 0.0, 0.0, 0.9600000455975533, 0.0, 0.0, 0.0, 0.0, 0.0, 1.740058074545625E9, 0.0, 2025-02-20 13:27:54.545
64.0, -61.85981521708891, -781.4315262916498, 5.578060783911496, -158.7194841695018, 0.0, 0.0, 0.9600000455975533, 0.0, 0.0, 0.0, 0.0, 0.0, 1.7400580745457647E9, 0.0, 2025-02-20 13:27:54.545
64.0, 92.21097330749035, -639.6799682211131, 13.49168909015134, 41.64939585654065, 0.0, 0.0, 0.9600000455975533, 0.0, 0.0, 0.0, 0.0, 0.0, 1.7400580745458994E9, 0.0, 2025-02-20 13:27:54.545
65.0, 102.89025763096288, -635.1266400250606, 11.45718351425603, 164.04136180644855, 0.0, 0.0, 0.9600000455975533, 0.0, 0.0, 0.0, 0.0, 0.0, 1.74005807454672E9, 0.0, 2025-02-20 13:27:54.546
65.0, -40.55173521954566, -774.6978364214301, 8.536321648862213, -32.957868359517306, 0.0, 0.0, 0.9600000455975533, 0.0, 0.0, 0.0, 0.0, 0.0, 1.740058074546764E9, 0.0, 2025-02-20 13:27:54.546
66.0, -44.7796921194531, -802.4310645428486, 11.535721413325518, -157.6461328822188, 0.0, 0.0, 0.9600000455975533, 0.0, 0.0, 0.0, 0.0, 0.0, 1.7400580745747683E9, 0.0, 2025-02-20 13:27:54.574
66.0, 108.50571741443127, -654.8864014409482, 15.739368963520974, 48.99829926947132, 0.0, 0.0, 0.9600000455975533, 0.0, 0.0, 0.0, 0.0, 0.0, 1.740058074574906E9, 0.0, 2025-02-20 13:27:54.574
67.0, 113.67612910317257, -641.4956896496005, 10.23049632878974, 161.93953803135082, 0.0, 0.0, 0.9600000455975533, 0.0, 0.0, 0.0, 0.0, 0.0, 1.740058074575518E9, 0.0, 2025-02-20 13:27:54.575
67.0, -29.694805648177862, -788.9281557528302, 12.941923796664923, -40.95377446478233, 0.0, 0.0, 0.9600000455975533, 0.0, 0.0, 0.0, 0.0, 0.0, 1.740058074575581E9, 0.0, 2025-02-20 13:27:54.575
68.0, -31.98923427099362, -801.2866551564075, 11.191650617402047, -152.95255843782797, 0.0, 0.0, 0.9600000455975533, 0.0, 0.0, 0.0, 0.0, 0.0, 1.7400580746047812E9, 0.0, 2025-02-20 13:27:54.604
68.0, 110.92543268576264, -662.1679866546765, 11.330026915762573, 44.38700262410566, 0.0, 0.0, 0.9600000455975533, 0.0, 0.0, 0.0, 0.0, 0.0, 1.7400580746048813E9, 0.0, 2025-02-20 13:27:54.604
69.0, 110.52152349054813, -646.1780443941243, 13.252335492987186, 158.67086547007784, 0.0, 0.0, 0.9600000455975533, 0.0, 0.0, 0.0, 0.0, 0.0, 1.7400580746050017E9, 0.0, 2025-02-20 13:27:54.605
69.0, -29.96968829492107, -775.3037002142519, 12.560454001184553, -39.824324678163975, 0.0, 0.0, 0.9600000455975533, 0.0, 0.0, 0.0, 0.0, 0.0, 1.740058074605044E9, 0.0, 2025-02-20 13:27:54.605
70.0, -49.51253551337868, -792.030402766075, 12.717529799323529, -153.63696012971923, 0.0, 0.0, 0.9920000471174717, 0.0, 0.0, 0.0, 0.0, 0.0, 1.7400580746057005E9, 0.0, 2025-02-20 13:27:54.605
70.0, 90.49622917780653, -661.8613148583099, 13.151358194183558, 53.508618616033345, 0.0, 0.0, 0.9920000471174717, 0.0, 0.0, 0.0, 0.0, 0.0, 1.7400580746058612E9, 0.0, 2025-02-20 13:27:54.605
71.0, 104.75085785891861, -639.0385753787123, 11.689057311508805, 169.26974194450304, 0.0, 0.0, 0.9920000471174717, 0.0, 0.0, 0.0, 0.0, 0.0, 1.7400580746066356E9, 0.0, 2025-02-20 13:27:54.606
71.0, -28.70560210989788, -758.971557107754, 9.553574436809868, -27.53127352381125, 0.0, 0.0, 0.9920000471174717, 0.0, 0.0, 0.0, 0.0, 0.0, 1.740058074606977E9, 0.0, 2025-02-20 13:27:54.606
72.0, -42.904132291674614, -784.5356432548724, 8.569980748463422, -152.04002284863964, 0.0, 0.0, 0.9920000471174717, 0.0, 0.0, 0.0, 0.0, 0.0, 1.7400580746348882E9, 0.0, 2025-02-20 13:27:54.634
72.0, 72.95609838562086, -660.8066630708054, 13.48794919019565, 51.6349287382327, 0.0, 0.0, 0.9920000471174717, 0.0, 0.0, 0.0, 0.0, 0.0, 1.740058074634971E9, 0.0, 2025-02-20 13:27:54.634
73.0, 72.17819919483736, -629.9057396869175, 13.86193918576464, 166.90612517250702, 0.0, 0.0, 0.9920000471174717, 0.0, 0.0, 0.0, 0.0, 0.0, 1.7400580746356845E9, 0.0, 2025-02-20 13:27:54.635
73.0, -78.73237386718392, -748.780329728499, 11.0607541189529, -27.680869522038847, 0.0, 0.0, 0.9920000471174717, 0.0, 0.0, 0.0, 0.0, 0.0, 1.740058074635725E9, 0.0, 2025-02-20 13:27:54.635
74.0, -109.4425623533316, -775.4065474630333, 13.89559828536585, -142.7538512586616, 0.0, 0.0, 0.9920000471174717, 0.0, 0.0, 0.0, 0.0, 0.0, 1.7400580746650264E9, 0.0, 2025-02-20 13:27:54.665
74.0, 25.80530969426036, -649.9759127991274, 13.424370890948921, 60.98467862745747, 0.0, 0.0, 0.9920000471174717, 0.0, 0.0, 0.0, 0.0, 0.0, 1.7400580746650991E9, 0.0, 2025-02-20 13:27:54.665
75.0, 55.37482869392261, -615.5520036569797, 8.023955354932696, 161.34489393839613, 0.0, 0.0, 0.9920000471174717, 0.0, 0.0, 0.0, 0.0, 0.0, 1.7400580746654396E9, 0.0, 2025-02-20 13:27:54.665
75.0, -62.598445458337665, -739.5053778383881, 8.136152353603393, -35.1457098335959, 0.0, 0.0, 0.9920000471174717, 0.0, 0.0, 0.0, 0.0, 0.0, 1.7400580746655223E9, 0.0, 2025-02-20 13:27:54.665
76.0, -66.61322806077078, -767.5751969558187, 6.808487869333476, -150.55528256623074, 0.0, 0.0, 0.9920000471174717, 0.0, 0.0, 0.0, 0.0, 0.0, 1.7400580746658125E9, 0.0, 2025-02-20 13:27:54.665
76.0, 56.42761053144932, -659.4827384864911, 12.380938803311437, 50.07539045671001, 0.0, 0.0, 0.9920000471174717, 0.0, 0.0, 0.0, 0.0, 0.0, 1.7400580746658819E9, 0.0, 2025-02-20 13:27:54.665
77.0, 91.52096176566556, -622.3100028769113, 13.88437858549878, 161.4645707369782, 0.0, 0.0, 0.9920000471174717, 0.0, 0.0, 0.0, 0.0, 0.0, 1.7400580746668794E9, 0.0, 2025-02-20 13:27:54.666
77.0, -31.7928895233199, -749.9434386147186, 8.910311644431204, -40.12351667461917, 0.0, 0.0, 0.9920000471174717, 0.0, 0.0, 0.0, 0.0, 0.0, 1.7400580746670327E9, 0.0, 2025-02-20 13:27:54.667
78.0, -61.48956512147561, -775.3541888636537, 10.67554442351684, -146.7181452116929, 0.0, 0.0, 0.9920000471174717, 0.0, 0.0, 0.0, 0.0, 0.0, 1.7400580746949422E9, 0.0, 2025-02-20 13:27:54.694
78.0, 40.065548225305974, -668.2079250831157, 16.195636758115143, 56.68005377845839, 0.0, 0.0, 0.9920000471174717, 0.0, 0.0, 0.0, 0.0, 0.0, 1.7400580746950336E9, 0.0, 2025-02-20 13:27:54.695
79.0, 60.023524338845164, -623.4805915630423, 16.894998049829155, 162.14523252891377, 0.0, 0.0, 0.9920000471174717, 0.0, 0.0, 0.0, 0.0, 0.0, 1.740058074695702E9, 0.0, 2025-02-20 13:27:54.695
79.0, -67.09754510503262, -738.0767360553145, 13.47298959037289, -42.258999549318105, 0.0, 0.0, 0.9920000471174717, 0.0, 0.0, 0.0, 0.0, 0.0, 1.7400580746957827E9, 0.0, 2025-02-20 13:27:54.695
80.0, -95.18980362219736, -773.5141580854543, 10.69424392329529, -146.91262000938877, 0.0, 0.0, 0.9920000471174717, 0.0, 0.0, 0.0, 0.0, 0.0, 1.740058074725221E9, 0.0, 2025-02-20 13:27:54.725
80.0, 26.58694878499955, -666.5062706032768, 15.036267771851271, 53.2655251189135, 0.0, 0.0, 0.9920000471174717, 0.0, 0.0, 0.0, 0.0, 0.0, 1.740058074725471E9, 0.0, 2025-02-20 13:27:54.725
81.0, 70.7570372116752, -623.8658012584783, 9.07486724248156, 150.96667156135663, 0.0, -0.01600000075995922, 0.9920000471174717, 0.0, 0.0, 0.0, 0.0, 0.0, 1.7400580747256255E9, 0.0, 2025-02-20 13:27:54.725
81.0, -25.031150403432548, -732.0592370266095, 10.750342422630638, -46.05125810438767, 0.0, -0.01600000075995922, 0.9920000471174717, 0.0, 0.0, 0.0, 0.0, 0.0, 1.7400580747257137E9, 0.0, 2025-02-20 13:27:54.725
82.0, -27.15728352824226, -775.2457317649387, 6.576614072080702, -150.3121890691109, 0.0, -0.01600000075995922, 0.9920000471174717, 0.0, 0.0, 0.0, 0.0, 0.0, 1.7400580747258878E9, 0.0, 2025-02-20 13:27:54.725
82.0, 91.39193521719426, -682.303608016111, 13.192497093696147, 52.704540125560015, 0.0, -0.01600000075995922, 0.9920000471174717, 0.0, 0.0, 0.0, 0.0, 0.0, 1.7400580747259595E9, 0.0, 2025-02-20 13:27:54.725
83.0, 131.69122718973085, -645.2842083047144, 15.86652556201443, 195.00773343956098, 0.0, -0.01600000075995922, 0.9920000471174717, 0.0, 0.0, 0.0, 0.0, 0.0, 1.7400580747267866E9, 0.0, 2025-02-20 13:27:54.726
83.0, 14.4883724283427, -749.5058703199029, 8.109973053913563, -2.1036937250755727, 0.0, -0.01600000075995922, 0.9920000471174717, 0.0, 0.0, 0.0, 0.0, 0.0, 1.740058074726875E9, 0.0, 2025-02-20 13:27:54.726
84.0, -24.834805655758828, -791.6003142711706, 10.6905040233396, -149.48941107885912, 0.0, -0.01600000075995922, 0.9920000471174717, 0.0, 0.0, 0.0, 0.0, 0.0, 1.7400580747548122E9, 0.0, 2025-02-20 13:27:54.754
84.0, 86.39542887639254, -696.7545814448968, 15.93010386126116, 63.153820601757616, 0.0, -0.01600000075995922, 0.9920000471174717, 0.0, 0.0, 0.0, 0.0, 0.0, 1.7400580747548728E9, 0.0, 2025-02-20 13:27:54.754
85.0, 115.25436688447371, -640.8112879577093, 12.410858002956957, 162.8707731203176, 0.0, -0.01600000075995922, 0.9920000471174717, 0.0, 0.0, 0.0, 0.0, 0.0, 1.7400580747552037E9, 0.0, 2025-02-20 13:27:54.755
85.0, 5.306918037123978, -737.6429076604545, 8.21469025267288, -51.72094643721357, 0.0, -0.01600000075995922, 0.9920000471174717, 0.0, 0.0, 0.0, 0.0, 0.0, 1.7400580747552798E9, 0.0, 2025-02-20 13:27:54.755
86.0, -39.98140047630295, -782.0149506847374, 10.817660621833056, -157.77328948071226, 0.0, -0.01600000075995922, 0.9920000471174717, 0.0, 0.0, 0.0, 0.0, 0.0, 1.7400580747848568E9, 0.0, 2025-02-20 13:27:54.784
86.0, 54.81945355050266, -684.4727499904111, 15.91888416139409, 47.25176599016413, 0.0, -0.01600000075995922, 0.9920000471174717, 0.0, 0.0, 0.0, 0.0, 0.0, 1.7400580747849064E9, 0.0, 2025-02-20 13:27:54.784
87.0, 80.48077709646896, -639.8725730688311, 10.948557120282203, 153.21435143472627, 0.0, -0.01600000075995922, 0.9920000471174717, 0.0, 0.0, 0.0, 0.0, 0.0, 1.7400580747850385E9, 0.0, 2025-02-20 13:27:54.785
87.0, -12.005078857764602, -740.2533578295261, 8.611119647976011, -46.294351601507515, 0.0, -0.01600000075995922, 0.9920000471174717, 0.0, 0.0, 0.0, 0.0, 0.0, 1.740058074785069E9, 0.0, 2025-02-20 13:27:54.785
88.0, -33.21592145645991, -764.2504258952104, 9.168364741373807, -145.4951979261823, 0.0, -0.01600000075995922, 0.9920000471174717, 0.0, 0.0, 0.0, 0.0, 0.0, 1.7400580747858777E9, 0.0, 2025-02-20 13:27:54.785
88.0, 51.18427079357207, -682.2624691165984, 11.251489016693085, 61.134274625685066, 0.0, -0.01600000075995922, 0.9920000471174717, 0.0, 0.0, 0.0, 0.0, 0.0, 1.7400580747859552E9, 0.0, 2025-02-20 13:27:54.785
89.0, 92.49333575414494, -627.9273326103576, 11.973289708141237, 168.9144514487125, 0.0, -0.01600000075995922, 0.9920000471174717, 0.0, 0.0, 0.0, 0.0, 0.0, 1.740058074786765E9, 0.0, 2025-02-20 13:27:54.786
89.0, 1.6717352801933885, -716.6658088089898, 15.619692164938897, -44.656275420915335, 0.0, -0.01600000075995922, 0.9920000471174717, 0.0, 0.0, 0.0, 0.0, 0.0, 1.7400580747868268E9, 0.0, 2025-02-20 13:27:54.786
90.0, -45.063924516085535, -768.4989522448741, 10.589526724535972, -136.5680567319505, 0.0, -0.01600000075995922, 0.9920000471174717, 0.0, 0.0, 0.0, 0.0, 0.0, 1.7400580748151464E9, 0.0, 2025-02-20 13:27:54.815
90.0, 29.122600954957306, -698.0074479300529, 16.67434395244345, 69.866941022221, 0.0, -0.01600000075995922, 0.9920000471174717, 0.0, 0.0, 0.0, 0.0, 0.0, 1.74005807481522E9, 0.0, 2025-02-20 13:27:54.815
91.0, 82.69479787023738, -640.7215303587727, 12.089226606767625, 160.41739874938503, 0.0, -0.01600000075995922, 0.9920000471174717, 0.0, 0.0, 0.0, 0.0, 0.0, 1.7400580748156104E9, 0.0, 2025-02-20 13:27:54.815
91.0, -2.569311269558966, -716.6732886089012, 8.308187751565129, -46.713220396544784, 0.0, -0.01600000075995922, 0.9920000471174717, 0.0, 0.0, 0.0, 0.0, 0.0, 1.7400580748156624E9, 0.0, 2025-02-20 13:27:54.815
92.0, -56.97924577491358, -772.298690599855, 11.935890708584338, -139.31314329942688, 0.0, -0.01600000075995922, 0.9920000471174717, 0.0, 0.0, 0.0, 0.0, 0.0, 1.7400580748451493E9, 0.0, 2025-02-20 13:27:54.845
92.0, 27.01703727990389, -698.6058319229633, 15.11106577096507, 70.18483251845464, 0.0, -0.01600000075995922, 0.9920000471174717, 0.0, 0.0, 0.0, 0.0, 0.0, 1.74005807484542E9, 0.0, 2025-02-20 13:27:54.845
93.0, 83.60733345942572, -628.3424615054391, 9.650811835657805, 157.1337665882893, 0.0, -0.01600000075995922, 0.9920000471174717, 0.0, 0.0, 0.0, 0.0, 0.0, 1.740058074845494E9, 0.0, 2025-02-20 13:27:54.845
93.0, -6.357829924672842, -709.4141427949071, 10.193097329232842, -42.75266634346917, 0.0, -0.01600000075995922, 0.9920000471174717, 0.0, 0.0, 0.0, 0.0, 0.0, 1.7400580748456292E9, 0.0, 2025-02-20 13:27:54.845
94.0, -57.80950356507674, -770.5371977207251, 11.812474010046571, -142.2377450647764, 0.0, -0.01600000075995922, 0.9920000471174717, 0.0, 0.0, 0.0, 0.0, 0.0, 1.740058074845696E9, 0.0, 2025-02-20 13:27:54.845
94.0, 23.70348591916263, -696.088879252784, 13.596406288910657, 70.37182751623914, 0.0, -0.01600000075995922, 0.9920000471174717, 0.0, 0.0, 0.0, 0.0, 0.0, 1.7400580748457525E9, 0.0, 2025-02-20 13:27:54.845
95.0, 80.06564820138738, -628.3312418055721, 13.49542899010703, 157.95654457854107, 0.0, -0.01600000075995922, 0.9920000471174717, 0.0, 0.0, 0.0, 0.0, 0.0, 1.7400580748465865E9, 0.0, 2025-02-20 13:27:54.846
95.0, 3.9194151535630226, -698.3926576254889, 8.469003449659795, -50.87572904722765, 0.0, -0.01600000075995922, 0.9920000471174717, 0.0, 0.0, 0.0, 0.0, 0.0, 1.7400580748466291E9, 0.0, 2025-02-20 13:27:54.846
96.0, -53.097229620907456, -766.0717571736313, 13.132658694405109, -141.57578277261928, 0.0, -0.01600000075995922, 0.9920000471174717, 0.0, 0.0, 0.0, 0.0, 0.0, 1.7400580748747551E9, 0.0, 2025-02-20 13:27:54.874
96.0, 19.189426672644913, -702.0016610827297, 13.170057693962008, 65.80914957029745, 0.0, -0.01600000075995922, 0.9920000471174717, 0.0, 0.0, 0.0, 0.0, 0.0, 1.7400580748748517E9, 0.0, 2025-02-20 13:27:54.874
97.0, 88.86563279712573, -623.8732810583897, 15.182123870123178, 153.85387432714924, 0.0, -0.01600000075995922, 0.9920000471174717, 0.0, 0.0, 0.0, 0.0, 0.0, 1.7400580748754492E9, 0.0, 2025-02-20 13:27:54.875
97.0, 3.6426625568419695, -691.3915649084374, 9.317960739601403, -54.25659860717133, 0.0, -0.01600000075995922, 0.9920000471174717, 0.0, 0.0, 0.0, 0.0, 0.0, 1.7400580748755536E9, 0.0, 2025-02-20 13:27:54.875
98.0, -55.105555897112936, -762.9078018111177, 12.530534801539034, -140.44259308604524, 0.0, -0.01600000075995922, 0.9920000471174717, 0.0, 0.0, 0.0, 0.0, 0.0, 1.7400580749048676E9, 0.0, 2025-02-20 13:27:54.904
98.0, 22.274844136089087, -692.9361435901374, 13.128918794449419, 67.4210464511998, 0.0, -0.01600000075995922, 0.9920000471174717, 0.0, 0.0, 0.0, 0.0, 0.0, 1.7400580749049408E9, 0.0, 2025-02-20 13:27:54.904
99.0, 81.32973438641056, -619.1497874143533, 11.599299712572247, 147.81393589871004, 0.0, -0.01600000075995922, 0.9920000471174717, 0.0, 0.0, 0.0, 0.0, 0.0, 1.7400580749050665E9, 0.0, 2025-02-20 13:27:54.905
99.0, 8.246479402296245, -686.4548969669268, 12.197683705482632, -63.71106569515541, 0.0, -0.01600000075995922, 0.9920000471174717, 0.0, 0.0, 0.0, 0.0, 0.0, 1.7400580749051075E9, 0.0, 2025-02-20 13:27:54.905
100.0, -59.32416304713115, -762.0064859217964, 9.007549043279141, -145.85796822188422, 0.0, -0.01600000075995922, 0.9920000471174717, 0.0, 0.0, 0.0, 0.0, 0.0, 1.7400580749059346E9, 0.0, 2025-02-20 13:27:54.905
100.0, 11.818083859980106, -701.997921182774, 14.471542878542095, 69.24611762957647, 0.0, -0.01600000075995922, 0.9920000471174717, 0.0, 0.0, 0.0, 0.0, 0.0, 1.7400580749059756E9, 0.0, 2025-02-20 13:27:54.905
0.0, -417.7617846503854, -623.9611687073484, 12.197683705482632, 149.33981508063152, 0.0, -0.01600000075995922, 0.9920000471174717, 0.0, 0.0, 0.0, 0.0, 0.0, 1.740058074906623E9, 0.0, 2025-02-20 13:27:54.906
1.0, -472.0258630574681, -676.3066784371622, 11.760115410666913, -59.23814534815028, 0.0, -0.01600000075995922, 0.9920000471174717, 0.0, 0.0, 0.0, 0.0, 0.0, 1.7400580749346645E9, 0.0, 2025-02-20 13:27:54.934
1.0, -548.8340583974496, -759.7307567987591, 9.07486724248156, -147.9373525972478, 0.0, -0.01600000075995922, 0.9920000471174717, 0.0, 0.0, 0.0, 0.0, 0.0, 1.74005807493473E9, 0.0, 2025-02-20 13:27:54.934
2.0, -482.097413638141, -695.4774056100287, 16.835159650538117, 67.26397065306082, 0.0, -0.01600000075995922, 0.9920000471174717, 0.0, 0.0, 0.0, 0.0, 0.0, 1.7400580749351048E9, 0.0, 2025-02-20 13:27:54.935
2.0, -406.5720039829612, -607.9843160966411, 13.233635993208736, 140.79788358183578, 0.0, -0.01600000075995922, 0.9920000471174717, 0.0, 0.0, 0.0, 0.0, 0.0, 1.7400580749351597E9, 0.0, 2025-02-20 13:27:54.935
3.0, -471.48731746384874, -668.5389062291943, 11.135552118066698, -63.965378892142326, 0.0, -0.01600000075995922, 0.9920000471174717, 0.0, 0.0, 0.0, 0.0, 0.0, 1.7400580749359815E9, 0.0, 2025-02-20 13:27:54.935
3.0, -542.8277790686116, -750.8896333035082, 11.311327415984124, -144.72477853531018, 0.0, -0.01600000075995922, 0.9920000471174717, 0.0, 0.0, 0.0, 0.0, 0.0, 1.7400580749360263E9, 0.0, 2025-02-20 13:27:54.936
4.0, -481.6822847430594, -699.5912955612876, 10.933597520459443, 63.153820601757616, 0.0, -0.01600000075995922, 0.9920000471174717, 0.0, 0.0, 0.0, 0.0, 0.0, 1.7400580749651315E9, 0.0, 2025-02-20 13:27:54.965
4.0, -404.73571310471743, -604.6034465366974, 13.712343187537044, 140.43137338617817, 0.0, -0.01600000075995922, 0.9920000471174717, 0.0, 0.0, 0.0, 0.0, 0.0, 1.7400580749652135E9, 0.0, 2025-02-20 13:27:54.965
5.0, -467.612781109754, -659.2003760398366, 13.181277393829077, -67.96333194477484, 0.0, -0.01600000075995922, 0.9920000471174717, 0.0, 0.0, 0.0, 0.0, 0.0, 1.7400580749653275E9, 0.0, 2025-02-20 13:27:54.965
5.0, -546.9491488197818, -755.1680788528174, 11.718976511154324, -138.153774313163, 0.0, -0.01600000075995922, 0.9920000471174717, 0.0, 0.0, 0.0, 0.0, 0.0, 1.740058074965381E9, 0.0, 2025-02-20 13:27:54.965
6.0, -500.6248780186288, -708.5969746545888, 14.460323178675026, 71.98746429709718, 0.0, -0.01600000075995922, 0.9920000471174717, 0.0, 0.0, 0.0, 0.0, 0.0, 1.7400580749658802E9, 0.0, 2025-02-20 13:27:54.965
6.0, -414.4968519890681, -612.3113803453743, 11.04579451913014, 147.1295342068188, 0.0, -0.01600000075995922, 0.9920000471174717, 0.0, 0.0, 0.0, 0.0, 0.0, 1.740058074965934E9, 0.0, 2025-02-20 13:27:54.965
7.0, -479.77867566561326, -667.0279866470955, 8.689657547045499, -52.1173758325167, 0.0, -0.01600000075995922, 0.9920000471174717, 0.0, 0.0, 0.0, 0.0, 0.0, 1.7400580749947107E9, 0.0, 2025-02-20 13:27:54.994
7.0, -554.810418526642, -757.5429153246805, 8.375505950767547, -129.51460541551933, 0.0, -0.01600000075995922, 0.9920000471174717, 0.0, 0.0, 0.0, 0.0, 0.0, 1.7400580749950778E9, 0.0, 2025-02-20 13:27:54.995
8.0, -500.08633242500946, -709.8423613398336, 12.586633300874382, 78.22187752323225, 0.0, -0.01600000075995922, 0.9920000471174717, 0.0, 0.0, 0.0, 0.0, 0.0, 1.7400580749951365E9, 0.0, 2025-02-20 13:27:54.995
8.0, -417.36161535512656, -616.9077173909172, 17.07077334774658, 147.35392820416018, 0.0, -0.01600000075995922, 0.9920000471174717, 0.0, 0.0, 0.0, 0.0, 0.0, 1.7400580749951663E9, 0.0, 2025-02-20 13:27:54.995
9.0, -468.1700262031518, -679.5865706983022, 11.322547115851194, -70.08385521965101, 0.0, -0.01600000075995922, 0.9920000471174717, 0.0, 0.0, 0.0, 0.0, 0.0, 1.7400580749958727E9, 0.0, 2025-02-20 13:27:54.995
9.0, -537.7415151288733, -756.0581750422716, 7.567687560338527, -130.47949960408732, 0.0, -0.01600000075995922, 0.9920000471174717, 0.0, 0.0, 0.0, 0.0, 0.0, 1.7400580749959087E9, 0.0, 2025-02-20 13:27:54.995
10.0, -497.546940355096, -733.9310569544323, 14.191050381865352, 83.99254315486178, 0.0, -0.01600000075995922, 1.008000047877431, 0.0, 0.0, 0.0, 0.0, 0.0, 1.7400580750246632E9, 0.0, 2025-02-20 13:27:55.024
10.0, -419.8561286255717, -651.6027692798525, 13.020461695734411, 150.68991896463558, 0.0, -0.01600000075995922, 1.008000047877431, 0.0, 0.0, 0.0, 0.0, 0.0, 1.7400580750248349E9, 0.0, 2025-02-20 13:27:55.024
11.0, -463.44653255911544, -700.4402528512292, 10.477329725865275, -61.960792515892535, 0.0, -0.01600000075995922, 1.008000047877431, 0.0, 0.0, 0.0, 0.0, 0.0, 1.740058075025215E9, 0.0, 2025-02-20 13:27:55.025
11.0, -556.366216908209, -794.6539425849915, 10.103339730296284, -129.19671391928568, 0.0, -0.01600000075995922, 1.008000047877431, 0.0, 0.0, 0.0, 0.0, 0.0, 1.7400580750252745E9, 0.0, 2025-02-20 13:27:55.025
12.0, -510.09430470643565, -751.5534655456431, 13.353312791790813, 83.21464396407828, 0.0, -0.01600000075995922, 1.008000047877431, 0.0, 0.0, 0.0, 0.0, 0.0, 1.740058075026003E9, 0.0, 2025-02-20 13:27:55.026
12.0, -421.2698108088225, -642.8588831834495, 14.497722178231925, 151.63237375346944, 0.0, -0.01600000075995922, 1.008000047877431, 0.0, 0.0, 0.0, 0.0, 0.0, 1.7400580750260606E9, 0.0, 2025-02-20 13:27:55.026
13.0, -451.69202699838206, -675.9962667408399, 10.982216219883412, -66.0485031674616, 0.0, -0.01600000075995922, 1.008000047877431, 0.0, 0.0, 0.0, 0.0, 0.0, 1.7400580750548575E9, 0.0, 2025-02-20 13:27:55.054
13.0, -556.2540199095383, -780.3263858547434, 9.83032703353092, -131.07040379708633, 0.0, -0.01600000075995922, 1.008000047877431, 0.0, 0.0, 0.0, 0.0, 0.0, 1.740058075054943E9, 0.0, 2025-02-20 13:27:55.054
14.0, -508.7778599220328, -745.4873478175141, 14.393004979472607, 75.21499795885757, 0.0, -0.01600000075995922, 1.008000047877431, 0.0, 0.0, 0.0, 0.0, 0.0, 1.7400580750550668E9, 0.0, 2025-02-20 13:27:55.055
14.0, -414.8671020846814, -641.5873171985149, 14.336906480137259, 142.1180682661943, 0.0, -0.01600000075995922, 1.008000047877431, 0.0, 0.0, 0.0, 0.0, 0.0, 1.7400580750551057E9, 0.0, 2025-02-20 13:27:55.055
15.0, -450.98892580671236, -667.8358050375246, 8.958930343855172, -76.62868014210835, 0.0, -0.01600000075995922, 1.008000047877431, 0.0, 0.0, 0.0, 0.0, 0.0, 1.7400580750558295E9, 0.0, 2025-02-20 13:27:55.055
15.0, -545.4793681371957, -774.7053162213415, 8.62981914775446, -138.5689032082446, 0.0, -0.01600000075995922, 1.008000047877431, 0.0, 0.0, 0.0, 0.0, 0.0, 1.7400580750558836E9, 0.0, 2025-02-20 13:27:55.055
16.0, -517.1926348223351, -741.6352508631535, 14.075113483238965, 81.34095408627763, 0.0, -0.01600000075995922, 1.008000047877431, 0.0, 0.0, 0.0, 0.0, 0.0, 1.740058075115208E9, 0.0, 2025-02-20 13:27:55.115
16.0, -417.21575925685465, -625.3972902903333, 17.10443244734779, 135.44608674524352, 0.0, -0.01600000075995922, 1.008000047877431, 0.0, 0.0, 0.0, 0.0, 0.0, 1.74005807511548E9, 0.0, 2025-02-20 13:27:55.115
17.0, -446.7030004574917, -652.8238466153853, 10.331473627593368, -77.89650622708723, 0.0, -0.01600000075995922, 1.008000047877431, 0.0, 0.0, 0.0, 0.0, 0.0, 1.7400580751157691E9, 0.0, 2025-02-20 13:27:55.115
17.0, -551.7624000627548, -767.8575594024733, 11.86109270947054, -134.9299805513583, 0.0, -0.01600000075995922, 1.008000047877431, 0.0, 0.0, 0.0, 0.0, 0.0, 1.740058075116017E9, 0.0, 2025-02-20 13:27:55.116
18.0, -524.4966594357975, -746.1044313102029, 10.963516720104963, 74.72507106466219, 0.0, -0.01600000075995922, 1.008000047877431, 0.0, 0.0, 0.0, 0.0, 0.0, 1.740058075116153E9, 0.0, 2025-02-20 13:27:55.116
18.0, -429.8379216073081, -634.6423229807988, 10.907418220769614, 136.57553653186187, 0.0, -0.01600000075995922, 1.008000047877431, 0.0, 0.0, 0.0, 0.0, 0.0, 1.740058075116217E9, 0.0, 2025-02-20 13:27:55.116
19.0, -455.03175765881315, -659.641684234608, 9.647071935702115, -64.76571748265997, 0.0, -0.01600000075995922, 1.008000047877431, 0.0, 0.0, 0.0, 0.0, 0.0, 1.740058075116482E9, 0.0, 2025-02-20 13:27:55.116
19.0, -556.1904416102916, -779.8476786604151, 9.770488634239882, -127.48009983962402, 0.0, -0.01600000075995922, 1.008000047877431, 0.0, 0.0, 0.0, 0.0, 0.0, 1.740058075116603E9, 0.0, 2025-02-20 13:27:55.116
20.0, -527.9186678952537, -762.855443211738, 12.197683705482632, 83.78310875734314, 0.0, -0.01600000075995922, 0.9920000471174717, 0.0, 0.0, 0.0, 0.0, 0.0, 1.7400580751169896E9, 0.0, 2025-02-20 13:27:55.116
20.0, -417.006324859336, -629.6869555395097, 14.68097727606073, 141.01853767922148, 0.0, -0.01600000075995922, 0.9920000471174717, 0.0, 0.0, 0.0, 0.0, 0.0, 1.7400580751170938E9, 0.0, 2025-02-20 13:27:55.117
21.0, -435.83859108621255, -655.3183598858304, 8.884132344741374, -71.89396679820493, 0.0, -0.01600000075995922, 0.9920000471174717, 0.0, 0.0, 0.0, 0.0, 0.0, 1.7400580751178596E9, 0.0, 2025-02-20 13:27:55.117
21.0, -542.8053396688774, -768.5195216946304, 9.964963431935757, -134.1520813605748, 0.0, -0.01600000075995922, 0.9920000471174717, 0.0, 0.0, 0.0, 0.0, 0.0, 1.740058075117926E9, 0.0, 2025-02-20 13:27:55.117
22.0, -522.2414997625165, -756.2320803902112, 11.135552118066698, 85.82883403310552, 0.0, -0.01600000075995922, 0.9920000471174717, 0.0, 0.0, 0.0, 0.0, 0.0, 1.740058075145022E9, 0.0, 2025-02-20 13:27:55.145
22.0, -405.0797839006409, -625.3150124913082, 19.378291620407254, 143.80850304616615, 0.0, -0.01600000075995922, 0.9920000471174717, 0.0, 0.0, 0.0, 0.0, 0.0, 1.7400580751451292E9, 0.0, 2025-02-20 13:27:55.145
23.0, -437.39438946777955, -650.3368131448515, 4.2429164997302, -83.58863395964727, 0.0, -0.01600000075995922, 0.9920000471174717, 0.0, 0.0, 0.0, 0.0, 0.0, 1.7400580751453102E9, 0.0, 2025-02-20 13:27:55.145
23.0, -548.5722654005513, -773.2467552386224, 14.69593687588349, -127.94010753417388, 0.0, -0.01600000075995922, 0.9920000471174717, 0.0, 0.0, 0.0, 0.0, 0.0, 1.7400580751454232E9, 0.0, 2025-02-20 13:27:55.145
24.0, -529.9868325707503, -760.8246775357984, 13.760961886961013, 88.70855699898675, 0.0, -0.01600000075995922, 0.9920000471174717, 0.0, 0.0, 0.0, 0.0, 0.0, 1.7400580751458735E9, 0.0, 2025-02-20 13:27:55.145
24.0, -409.5227850480005, -618.4747354723513, 15.455136566888541, 134.5260713561438, 0.0, -0.01600000075995922, 0.9920000471174717, 0.0, 0.0, 0.0, 0.0, 0.0, 1.7400580751459343E9, 0.0, 2025-02-20 13:27:55.145
25.0, -436.58283117739484, -643.0178289315663, 11.255228916648775, -76.96153123816475, 0.0, -0.01600000075995922, 0.9920000471174717, 0.0, 0.0, 0.0, 0.0, 0.0, 1.740058075174946E9, 0.0, 2025-02-20 13:27:55.174
25.0, -546.7359745223075, -762.3599064676091, 10.103339730296284, -127.88026913488284, 0.0, -0.01600000075995922, 0.9920000471174717, 0.0, 0.0, 0.0, 0.0, 0.0, 1.7400580751752849E9, 0.0, 2025-02-20 13:27:55.175
26.0, -535.4994451054372, -749.6124574686401, 15.49253556644544, 82.20861087599769, 0.0, -0.01600000075995922, 0.9920000471174717, 0.0, 0.0, 0.0, 0.0, 0.0, 1.7400580751754973E9, 0.0, 2025-02-20 13:27:55.175
26.0, -401.76623253989965, -618.0783060770482, 15.679530564229935, 133.02637147391215, 0.0, -0.01600000075995922, 0.9920000471174717, 0.0, 0.0, 0.0, 0.0, 0.0, 1.7400580751755593E9, 0.0, 2025-02-20 13:27:55.175
27.0, -420.01133447373286, -623.6750663607381, 11.206610217224807, -80.4658174966462, 0.0, -0.01600000075995922, 0.9920000471174717, 0.0, 0.0, 0.0, 0.0, 0.0, 1.7400580751760938E9, 0.0, 2025-02-20 13:27:55.176
27.0, -549.3800837909803, -767.1432385109365, 9.284301640000194, -129.0770371207036, 0.0, -0.01600000075995922, 0.9920000471174717, 0.0, 0.0, 0.0, 0.0, 0.0, 1.7400580751761527E9, 0.0, 2025-02-20 13:27:55.176
28.0, -540.4772519464605, -772.2818610500544, 14.953989972826093, 92.33999985596165, 0.0, -0.01600000075995922, 0.9920000471174717, 0.0, 0.0, 0.0, 0.0, 0.0, 1.740058075204738E9, 0.0, 2025-02-20 13:27:55.204
28.0, -418.236751944758, -633.3726269458421, 12.855906097684056, 139.87412829278037, 0.0, -0.01600000075995922, 0.9920000471174717, 0.0, 0.0, 0.0, 0.0, 0.0, 1.740058075204803E9, 0.0, 2025-02-20 13:27:55.204
29.0, -418.41439719265327, -630.9342121747322, 10.428711026441306, -83.06504796585068, 0.0, -0.01600000075995922, 0.9920000471174717, 0.0, 0.0, 0.0, 0.0, 0.0, 1.7400580752049303E9, 0.0, 2025-02-20 13:27:55.204
29.0, -545.4831080371514, -777.3943042894825, 9.84154673339799, -129.39866851689294, 0.0, -0.01600000075995922, 0.9920000471174717, 0.0, 0.0, 0.0, 0.0, 0.0, 1.7400580752049658E9, 0.0, 2025-02-20 13:27:55.204
30.0, -542.1751665263437, -779.4175901655108, 18.174043834675103, 80.02450930187479, 0.0, -0.01600000075995922, 0.9920000471174717, 0.0, 0.0, 0.0, 0.0, 0.0, 1.7400580752058537E9, 0.0, 2025-02-20 13:27:55.205
30.0, -413.0121117066592, -633.5932810432278, 12.354759503621608, 134.46623295685276, 0.0, -0.01600000075995922, 0.9920000471174717, 0.0, 0.0, 0.0, 0.0, 0.0, 1.7400580752060103E9, 0.0, 2025-02-20 13:27:55.206
31.0, -418.1339046959765, -636.8264245549217, 6.449457473587245, -78.75294331694022, 0.0, -0.01600000075995922, 0.9920000471174717, 0.0, 0.0, 0.0, 0.0, 0.0, 1.7400580752348545E9, 0.0, 2025-02-20 13:27:55.234
31.0, -550.6067709764466, -777.4223535391502, 10.436190826352686, -119.10272393887863, 0.0, -0.01600000075995922, 0.9920000471174717, 0.0, 0.0, 0.0, 0.0, 0.0, 1.7400580752349255E9, 0.0, 2025-02-20 13:27:55.234
32.0, -552.8432311499491, -780.2534578056075, 12.025648307520896, 90.18581748148426, 0.0, -0.01600000075995922, 0.9920000471174717, 0.0, 0.0, 0.0, 0.0, 0.0, 1.7400580752352607E9, 0.0, 2025-02-20 13:27:55.235
32.0, -420.5910189668648, -634.193534986116, 10.626925724092871, 137.09912252565846, 0.0, -0.01600000075995922, 0.9920000471174717, 0.0, 0.0, 0.0, 0.0, 0.0, 1.7400580752353933E9, 0.0, 2025-02-20 13:27:55.235
33.0, -417.1353514078073, -629.3503645434976, 9.789188134018332, -79.59442080697045, 0.0, -0.01600000075995922, 0.9920000471174717, 0.0, 0.0, 0.0, 0.0, 0.0, 1.7400580752358327E9, 0.0, 2025-02-20 13:27:55.235
33.0, -547.5699722124264, -776.6556740482338, 14.598699477035552, -123.65044228499755, 0.0, -0.01600000075995922, 0.9920000471174717, 0.0, 0.0, 0.0, 0.0, 0.0, 1.7400580752359235E9, 0.0, 2025-02-20 13:27:55.235
34.0, -558.8046316793188, -781.3642080924474, 16.004901860374957, 98.70530958054587, 0.0, -0.01600000075995922, 0.9920000471174717, 0.0, 0.0, 0.0, 0.0, 0.0, 1.740058075265151E9, 0.0, 2025-02-20 13:27:55.265
34.0, -405.9979293397628, -632.3535042079166, 13.551527489442378, 137.22627912415192, 0.0, -0.01600000075995922, 0.9920000471174717, 0.0, 0.0, 0.0, 0.0, 0.0, 1.7400580752652268E9, 0.0, 2025-02-20 13:27:55.265
35.0, -405.01059575146064, -626.8184522734955, 9.531135037075728, -78.54350891942158, 0.0, -0.01600000075995922, 0.9920000471174717, 0.0, 0.0, 0.0, 0.0, 0.0, 1.7400580752653968E9, 0.0, 2025-02-20 13:27:55.265
35.0, -560.3305108612403, -783.7540041641332, 8.63729894766584, -119.2971987365745, 0.0, -0.01600000075995922, 0.9920000471174717, 0.0, 0.0, 0.0, 0.0, 0.0, 1.740058075265432E9, 0.0, 2025-02-20 13:27:55.265
36.0, -566.9763130825013, -802.4946428420953, 14.576260077301413, 93.46196984266862, 0.0, -0.01600000075995922, 0.9920000471174717, 0.0, 0.0, 0.0, 0.0, 0.0, 1.7400580752659864E9, 0.0, 2025-02-20 13:27:55.265
36.0, -416.5930659142323, -629.5298797413707, 12.149065006058663, 133.57613676739857, 0.0, -0.01600000075995922, 0.9920000471174717, 0.0, 0.0, 0.0, 0.0, 0.0, 1.7400580752661304E9, 0.0, 2025-02-20 13:27:55.266
37.0, -421.47176540642977, -624.3388986028731, 13.372012291569263, -84.54604834830388, 0.0, -0.01600000075995922, 0.9920000471174717, 0.0, 0.0, 0.0, 0.0, 0.0, 1.7400580752951732E9, 0.0, 2025-02-20 13:27:55.295
37.0, -559.5918806199916, -779.7710107113235, 15.11480567092076, -118.7810925426893, 0.0, -0.01600000075995922, 0.9920000471174717, 0.0, 0.0, 0.0, 0.0, 0.0, 1.7400580752952836E9, 0.0, 2025-02-20 13:27:55.295
38.0, -568.2273096176796, -793.0289560542442, 14.101292782928795, 99.46824917150661, 0.0, -0.01600000075995922, 0.9920000471174717, 0.0, 0.0, 0.0, 0.0, 0.0, 1.7400580752956758E9, 0.0, 2025-02-20 13:27:55.295
38.0, -408.2399993631989, -625.7301413863897, 13.8768987855874, 140.04242379078642, 0.0, -0.01600000075995922, 0.9920000471174717, 0.0, 0.0, 0.0, 0.0, 0.0, 1.740058075295729E9, 0.0, 2025-02-20 13:27:55.295
39.0, -393.1195838423446, -620.842092144303, 6.109126577619463, -83.02390906633809, 0.0, -0.01600000075995922, 0.9920000471174717, 0.0, 0.0, 0.0, 0.0, 0.0, 1.740058075295952E9, 0.0, 2025-02-20 13:27:55.295
39.0, -536.5353973931633, -778.4171669273637, 9.609672936145216, -121.38406291184947, 0.0, -0.01600000075995922, 0.9920000471174717, 0.0, 0.0, 0.0, 0.0, 0.0, 1.7400580752960205E9, 0.0, 2025-02-20 13:27:55.296
40.0, -545.0997682916932, -799.6298794760369, 13.701123487669975, 98.77262777974829, 0.0, -0.01600000075995922, 1.008000047877431, 0.0, 0.0, 0.0, 0.0, 0.0, 1.74005807532508E9, 0.0, 2025-02-20 13:27:55.325
40.0, -391.72834105882794, -633.6362898927182, 12.429557502735406, 129.03589822119102, 0.0, -0.01600000075995922, 1.008000047877431, 0.0, 0.0, 0.0, 0.0, 0.0, 1.7400580753251853E9, 0.0, 2025-02-20 13:27:55.325
41.0, -385.6285642310977, -615.572573106736, 7.231096564326435, -87.23129651648924, 0.0, -0.01600000075995922, 1.008000047877431, 0.0, 0.0, 0.0, 0.0, 0.0, 1.740058075325452E9, 0.0, 2025-02-20 13:27:55.325
41.0, -543.4654320110567, -786.6075478303246, 10.309034227859229, -116.27909947233275, 0.0, -0.01600000075995922, 1.008000047877431, 0.0, 0.0, 0.0, 0.0, 0.0, 1.7400580753256593E9, 0.0, 2025-02-20 13:27:55.325
42.0, -576.0586601248942, -819.118498145137, 14.441623678896576, 100.2910271617584, 0.0, -0.01600000075995922, 1.008000047877431, 0.0, 0.0, 0.0, 0.0, 0.0, 1.7400580753260295E9, 0.0, 2025-02-20 13:27:55.326
42.0, -409.69856034591794, -628.6771825514734, 11.210350117180496, 130.0045323097147, 0.0, -0.01600000075995922, 1.008000047877431, 0.0, 0.0, 0.0, 0.0, 0.0, 1.7400580753261025E9, 0.0, 2025-02-20 13:27:55.326
43.0, -401.21646724641323, -618.5420536715537, 11.195390517357737, -85.45484403753653, 0.0, -0.01600000075995922, 1.008000047877431, 0.0, 0.0, 0.0, 0.0, 0.0, 1.740058075355116E9, 0.0, 2025-02-20 13:27:55.355
43.0, -563.9600837682374, -782.6731730769388, 10.133258929941803, -113.6649094033055, 0.0, -0.01600000075995922, 1.008000047877431, 0.0, 0.0, 0.0, 0.0, 0.0, 1.7400580753552413E9, 0.0, 2025-02-20 13:27:55.355
44.0, -577.7416151049547, -801.7541426508687, 14.28828778071329, 107.29959967872128, 0.0, -0.01600000075995922, 1.008000047877431, 0.0, 0.0, 0.0, 0.0, 0.0, 1.7400580753554351E9, 0.0, 2025-02-20 13:27:55.355
44.0, -412.2267327159643, -622.3268324267119, 8.835513645317405, 128.94614062225446, 0.0, -0.01600000075995922, 1.008000047877431, 0.0, 0.0, 0.0, 0.0, 0.0, 1.740058075355487E9, 0.0, 2025-02-20 13:27:55.355
45.0, -383.8782910518348, -607.6776443002746, 5.222770288120955, -84.45255084941164, 0.0, -0.01600000075995922, 1.008000047877431, 0.0, 0.0, 0.0, 0.0, 0.0, 1.7400580753559773E9, 0.0, 2025-02-20 13:27:55.355
45.0, -545.1558667910285, -784.0232769609429, 13.147618294227868, -117.49830685788766, 0.0, -0.01600000075995922, 1.008000047877431, 0.0, 0.0, 0.0, 0.0, 0.0, 1.7400580753560317E9, 0.0, 2025-02-20 13:27:55.356
46.0, -571.5595604781993, -804.8470399142243, 16.023601360153407, 99.00824147695675, 0.0, -0.01600000075995922, 1.008000047877431, 0.0, 0.0, 0.0, 0.0, 0.0, 1.7400580753849404E9, 0.0, 2025-02-20 13:27:55.384
46.0, -400.3413306567818, -618.7327885692939, 11.760115410666913, 132.1587146841921, 0.0, -0.01600000075995922, 1.008000047877431, 0.0, 0.0, 0.0, 0.0, 0.0, 1.740058075385088E9, 0.0, 2025-02-20 13:27:55.385
47.0, -386.5074407206848, -603.1411456540227, 8.498922649305314, -86.89844542043284, 0.0, -0.01600000075995922, 1.008000047877431, 0.0, 0.0, 0.0, 0.0, 0.0, 1.740058075385176E9, 0.0, 2025-02-20 13:27:55.385
47.0, -549.2585370424204, -789.9622380905785, 14.430403979029506, -115.26932648429647, 0.0, -0.01600000075995922, 1.008000047877431, 0.0, 0.0, 0.0, 0.0, 0.0, 1.7400580753852065E9, 0.0, 2025-02-20 13:27:55.385
48.0, -578.9608224905096, -819.769240737427, 12.25752210477367, 101.63365124585107, 0.0, -0.01600000075995922, 1.008000047877431, 0.0, 0.0, 0.0, 0.0, 0.0, 1.740058075385975E9, 0.0, 2025-02-20 13:27:55.385
48.0, -406.1568750878796, -627.0503260707483, 13.940477084834129, 123.41856848774478, 0.0, -0.01600000075995922, 1.008000047877431, 0.0, 0.0, 0.0, 0.0, 0.0, 1.7400580753860247E9, 0.0, 2025-02-20 13:27:55.386
49.0, -376.50694823917, -599.2553896000609, 9.729349734727293, -88.24106950452551, 0.0, -0.01600000075995922, 1.008000047877431, 0.0, 0.0, 0.0, 0.0, 0.0, 1.740058075414906E9, 0.0, 2025-02-20 13:27:55.414
49.0, -544.4303261996247, -780.0627229078673, 13.536567889619619, -108.9227162594907, 0.0, -0.01600000075995922, 1.008000047877431, 0.0, 0.0, 0.0, 0.0, 0.0, 1.740058075414994E9, 0.0, 2025-02-20 13:27:55.414
50.0, -573.5828463542275, -812.6596909216605, 13.985355884302408, 105.90461699524894, 0.0, -0.01600000075995922, 0.9920000471174717, 0.0, 0.0, 0.0, 0.0, 0.0, 1.7400580754151397E9, 0.0, 2025-02-20 13:27:55.415
50.0, -388.5905649960041, -620.1240313528106, 13.817060386296362, 124.35354347666726, 0.0, -0.01600000075995922, 0.9920000471174717, 0.0, 0.0, 0.0, 0.0, 0.0, 1.7400580754151697E9, 0.0, 2025-02-20 13:27:55.415
51.0, -364.4233314823359, -581.090695515275, 11.206610217224807, -89.37425919109955, 0.0, -0.01600000075995922, 0.9920000471174717, 0.0, 0.0, 0.0, 0.0, 0.0, 1.740058075415928E9, 0.0, 2025-02-20 13:27:55.415
51.0, -557.8827463402413, -796.0395755185746, 8.465263549704105, -112.08667162200436, 0.0, -0.01600000075995922, 0.9920000471174717, 0.0, 0.0, 0.0, 0.0, 0.0, 1.7400580754159665E9, 0.0, 2025-02-20 13:27:55.415
52.0, -579.8322191801853, -816.5267474758439, 11.296367816161364, 107.0714657814242, 0.0, -0.01600000075995922, 0.9920000471174717, 0.0, 0.0, 0.0, 0.0, 0.0, 1.740058075444965E9, 0.0, 2025-02-20 13:27:55.444
52.0, -387.82762540504336, -595.515489644371, 11.86109270947054, 118.38840304734185, 0.0, -0.01600000075995922, 0.9920000471174717, 0.0, 0.0, 0.0, 0.0, 0.0, 1.740058075445045E9, 0.0, 2025-02-20 13:27:55.445
53.0, -370.1865173140541, -560.768079156056, 9.332920339424163, -94.80833382671699, 0.0, -0.01600000075995922, 0.9920000471174717, 0.0, 0.0, 0.0, 0.0, 0.0, 1.7400580754454148E9, 0.0, 2025-02-20 13:27:55.445
53.0, -551.6371134142391, -748.8719572774135, 11.782554810401052, -110.7739667375572, 0.0, -0.01600000075995922, 0.9920000471174717, 0.0, 0.0, 0.0, 0.0, 0.0, 1.740058075445475E9, 0.0, 2025-02-20 13:27:55.445
54.0, -596.6094103814103, -791.9369052671827, 14.060153883416206, 100.75103485630825, 0.0, -0.01600000075995922, 0.9920000471174717, 0.0, 0.0, 0.0, 0.0, 0.0, 1.7400580754458413E9, 0.0, 2025-02-20 13:27:55.445
54.0, -401.2688258457929, -587.6990987369791, 11.210350117180496, 119.30093863653019, 0.0, -0.01600000075995922, 0.9920000471174717, 0.0, 0.0, 0.0, 0.0, 0.0, 1.7400580754458804E9, 0.0, 2025-02-20 13:27:55.445
55.0, -379.5512268031016, -557.1777751985937, 14.400484779383987, -98.09570588776842, 0.0, -0.01600000075995922, 0.9920000471174717, 0.0, 0.0, 0.0, 0.0, 0.0, 1.7400580754750805E9, 0.0, 2025-02-20 13:27:55.475
55.0, -559.8125347173773, -770.4698795215227, 8.730796446558088, -109.22564815590158, 0.0, -0.01600000075995922, 0.9920000471174717, 0.0, 0.0, 0.0, 0.0, 0.0, 1.7400580754751863E9, 0.0, 2025-02-20 13:27:55.475
56.0, -594.8703569020145, -810.0193215529434, 10.159438229631633, 106.93308948306367, 0.0, -0.01600000075995922, 0.9920000471174717, 0.0, 0.0, 0.0, 0.0, 0.0, 1.7400580754752915E9, 0.0, 2025-02-20 13:27:55.475
56.0, -399.05854497198015, -609.8505261745304, 12.616552500519902, 121.08487091539428, 0.0, -0.01600000075995922, 0.9920000471174717, 0.0, 0.0, 0.0, 0.0, 0.0, 1.740058075475332E9, 0.0, 2025-02-20 13:27:55.475
57.0, -359.92423183564097, -565.0614843051881, 6.842146968934685, -95.97144271293655, 0.0, -0.01600000075995922, 0.9920000471174717, 0.0, 0.0, 0.0, 0.0, 0.0, 1.7400580754759047E9, 0.0, 2025-02-20 13:27:55.475
57.0, -547.0370364687406, -766.3746890700422, 10.006102331448346, -104.36003831354901, 0.0, -0.01600000075995922, 0.9920000471174717, 0.0, 0.0, 0.0, 0.0, 0.0, 1.7400580754759417E9, 0.0, 2025-02-20 13:27:55.475
58.0, -592.9929271242581, -816.7810606728308, 14.69593687588349, 109.75297404965386, 0.0, -0.01600000075995922, 0.9920000471174717, 0.0, 0.0, 0.0, 0.0, 0.0, 1.7400580755049796E9, 0.0, 2025-02-20 13:27:55.504
58.0, -394.7352206232026, -608.3508262922987, 15.346679468173534, 123.47092708712444, 0.0, -0.01600000075995922, 0.9920000471174717, 0.0, 0.0, 0.0, 0.0, 0.0, 1.7400580755050385E9, 0.0, 2025-02-20 13:27:55.505
59.0, -359.2473099436611, -567.5372980758548, 8.555021148640662, -97.34398599667475, 0.0, -0.01600000075995922, 0.9920000471174717, 0.0, 0.0, 0.0, 0.0, 0.0, 1.740058075505165E9, 0.0, 2025-02-20 13:27:55.505
59.0, -568.7434158115648, -776.7342119473033, 14.250888781156391, -107.19862237991765, 0.0, -0.01600000075995922, 0.9920000471174717, 0.0, 0.0, 0.0, 0.0, 0.0, 1.7400580755052152E9, 0.0, 2025-02-20 13:27:55.505
60.0, -620.5447700978257, -820.9173900238238, 19.87195841455832, 105.20899560349062, 0.0, -0.01600000075995922, 0.9920000471174717, 0.0, 0.0, 0.0, 0.0, 0.0, 1.7400580755058465E9, 0.0, 2025-02-20 13:27:55.505
60.0, -423.6483871806413, -606.9820229085162, 10.335213527549058, 119.33085783617571, 0.0, -0.01600000075995922, 0.9920000471174717, 0.0, 0.0, 0.0, 0.0, 0.0, 1.7400580755059445E9, 0.0, 2025-02-20 13:27:55.505
61.0, -373.6870636725798, -550.8984831729904, 11.606779512483627, -94.2136897337623, 0.0, 0.0, 0.9920000471174717, 0.0, 0.0, 0.0, 0.0, 0.0, 1.740058075534835E9, 0.0, 2025-02-20 13:27:55.534
61.0, -574.4841622435488, -764.1195293967612, 11.004655619617552, -103.91499021882191, 0.0, 0.0, 0.9920000471174717, 0.0, 0.0, 0.0, 0.0, 0.0, 1.7400580755349312E9, 0.0, 2025-02-20 13:27:55.534
62.0, -624.4941044510342, -825.1771360733546, 13.91055788518861, 113.07774511026219, 0.0, 0.0, 0.9920000471174717, 0.0, 0.0, 0.0, 0.0, 0.0, 1.7400580755350604E9, 0.0, 2025-02-20 13:27:55.535
62.0, -396.8856630977243, -605.9198913211003, 12.66517119994387, 120.35185052407905, 0.0, 0.0, 0.9920000471174717, 0.0, 0.0, 0.0, 0.0, 0.0, 1.740058075535108E9, 0.0, 2025-02-20 13:27:55.535
63.0, -349.59088825806975, -551.2724731685594, 9.101046542171389, -97.97228918923065, 0.0, 0.0, 0.9920000471174717, 0.0, 0.0, 0.0, 0.0, 0.0, 1.7400580755359669E9, 0.0, 2025-02-20 13:27:55.535
63.0, -554.5766747794114, -774.0527036790736, 12.638991900254041, -116.67552886763588, 0.0, 0.0, 0.9920000471174717, 0.0, 0.0, 0.0, 0.0, 0.0, 1.7400580755360155E9, 0.0, 2025-02-20 13:27:55.536
64.0, -605.9292410709895, -825.0873784744181, 17.51956134242937, 86.75258932216093, 0.0, 0.0, 0.9920000471174717, 0.0, 0.0, 0.0, 0.0, 0.0, 1.7400580755649304E9, 0.0, 2025-02-20 13:27:55.564
64.0, -381.30897978227586, -595.249956747517, 13.50290879001841, 96.59600600553676, 0.0, 0.0, 0.9920000471174717, 0.0, 0.0, 0.0, 0.0, 0.0, 1.740058075565005E9, 0.0, 2025-02-20 13:27:55.565
65.0, -335.03145773056895, -542.2256551757455, 9.08234704239294, -118.45572124654427, 0.0, 0.0, 0.9920000471174717, 0.0, 0.0, 0.0, 0.0, 0.0, 1.7400580755652888E9, 0.0, 2025-02-20 13:27:55.565
65.0, -548.3684408529662, -760.8845159350894, 11.524501713458449, -120.79315871885046, 0.0, 0.0, 0.9920000471174717, 0.0, 0.0, 0.0, 0.0, 0.0, 1.740058075565369E9, 0.0, 2025-02-20 13:27:55.565
66.0, -601.0972903282382, -834.5044465628453, 17.47842244291678, 101.15120415156707, 0.0, 0.0, 0.9920000471174717, 0.0, 0.0, 0.0, 0.0, 0.0, 1.7400580755658748E9, 0.0, 2025-02-20 13:27:55.565
66.0, -386.5523195201531, -600.1903645889834, 11.778814910445362, 101.83560584345832, 0.0, 0.0, 0.9920000471174717, 0.0, 0.0, 0.0, 0.0, 0.0, 1.7400580755659528E9, 0.0, 2025-02-20 13:27:55.565
67.0, -334.32087673898786, -543.7814535573125, 8.510142349172384, -118.92320874100551, 0.0, 0.0, 0.9920000471174717, 0.0, 0.0, 0.0, 0.0, 0.0, 1.7400580755948532E9, 0.0, 2025-02-20 13:27:55.594
67.0, -553.9034927873872, -781.0276170964353, 7.46297036157921, -108.04757966985926, 0.0, 0.0, 0.9920000471174717, 0.0, 0.0, 0.0, 0.0, 0.0, 1.7400580755949335E9, 0.0, 2025-02-20 13:27:55.594
68.0, -606.658521562349, -836.3743965406902, 9.000069243367761, 106.772273784969, 0.0, 0.0, 0.9920000471174717, 0.0, 0.0, 0.0, 0.0, 0.0, 1.7400580755950484E9, 0.0, 2025-02-20 13:27:55.595
68.0, -381.006047885865, -596.8468940285966, 13.47298959037289, 114.10621759807691, 0.0, 0.0, 0.9920000471174717, 0.0, 0.0, 0.0, 0.0, 0.0, 1.7400580755951097E9, 0.0, 2025-02-20 13:27:55.595
69.0, -327.46564012020826, -537.0533735370263, 6.23254327615723, -98.05456698825583, 0.0, 0.0, 0.9920000471174717, 0.0, 0.0, 0.0, 0.0, 0.0, 1.7400580755958416E9, 0.0, 2025-02-20 13:27:55.595
69.0, -561.5029694973491, -296.18885679077357, 10.709203523118049, -95.82558661466464, 0.0, 0.0, 0.9920000471174717, 0.0, 0.0, 0.0, 0.0, 0.0, 1.7400580755959024E9, 0.0, 2025-02-20 13:27:55.595
70.0, -626.932519222144, -356.89491287153214, 13.379492091480643, 125.76348575996235, 0.0, 0.0, 1.008000047877431, 0.0, 0.0, 0.0, 0.0, 0.0, 1.7400580756247697E9, 0.0, 2025-02-20 13:27:55.624
70.0, -383.8109728526324, -113.63125030370429, 13.46176989050582, 122.59953039744869, 0.0, 0.0, 1.008000047877431, 0.0, 0.0, 0.0, 0.0, 0.0, 1.7400580756248977E9, 0.0, 2025-02-20 13:27:55.624
71.0, -335.03519763052464, -52.674620925914496, 7.253535964060575, -96.05372051196173, 0.0, -0.01600000075995922, 1.008000047877431, 0.0, 0.0, 0.0, 0.0, 0.0, 1.740058075625115E9, 0.0, 2025-02-20 13:27:55.625
71.0, -564.061061067041, -294.12817191518843, 8.62981914775446, -90.26435538055375, 0.0, -0.01600000075995922, 1.008000047877431, 0.0, 0.0, 0.0, 0.0, 0.0, 1.7400580756251888E9, 0.0, 2025-02-20 13:27:55.625
72.0, -625.1448470433243, -353.977790906094, 14.060153883416206, 119.6674488321878, 0.0, -0.01600000075995922, 1.008000047877431, 0.0, 0.0, 0.0, 0.0, 0.0, 1.7400580756263304E9, 0.0, 2025-02-20 13:27:55.626
72.0, -869.5286096478812, -110.01476704655215, 8.68591764708981, 117.93587515270337, 0.0, -0.01600000075995922, 1.008000047877431, 0.0, 0.0, 0.0, 0.0, 0.0, 1.7400580756265323E9, 0.0, 2025-02-20 13:27:55.626
73.0, -814.6605373979546, -53.79659091262147, 8.562500948552042, -98.6604307810776, 0.0, -0.01600000075995922, 1.008000047877431, 0.0, 0.0, 0.0, 0.0, 0.0, 1.7400580756548853E9, 0.0, 2025-02-20 13:27:55.654
73.0, -1051.6636074399576, -292.34797953628004, 11.412304714787751, -96.24071550974622, 0.0, -0.01600000075995922, 1.008000047877431, 0.0, 0.0, 0.0, 0.0, 0.0, 1.740058075655041E9, 0.0, 2025-02-20 13:27:55.655
74.0, -1111.382329932414, -364.82724067755044, 11.823693709913641, 114.49890709342435, 0.0, -0.01600000075995922, 1.008000047877431, 0.0, 0.0, 0.0, 0.0, 0.0, 1.740058075655181E9, 0.0, 2025-02-20 13:27:55.655
74.0, -1354.8236377481371, -604.4538505384699, 14.430403979029506, 107.69602907402441, 0.0, -0.01600000075995922, 1.008000047877431, 0.0, 0.0, 0.0, 0.0, 0.0, 1.7400580756552353E9, 0.0, 2025-02-20 13:27:55.655
75.0, -1301.79559627641, -530.9124578097835, 8.023955354932696, -109.71183515014127, 0.0, -0.01600000075995922, 1.008000047877431, 0.0, 0.0, 0.0, 0.0, 0.0, 1.7400580756559556E9, 0.0, 2025-02-20 13:27:55.655
75.0, -1543.3837836640887, -296.00560169294477, 14.30324738053605, -103.37644462520257, 0.0, -0.01600000075995922, 1.008000047877431, 0.0, 0.0, 0.0, 0.0, 0.0, 1.7400580756560333E9, 0.0, 2025-02-20 13:27:55.656
76.0, -1609.7707477775402, -361.5323888165876, 14.206009981688112, 111.63040382741019, 0.0, -0.01600000075995922, 1.008000047877431, 0.0, 0.0, 0.0, 0.0, 0.0, 1.7400580756846976E9, 0.0, 2025-02-20 13:27:55.684
76.0, -1852.2957801041193, -592.355274181813, 13.555267389398068, 103.57839922280982, 0.0, -0.01600000075995922, 1.008000047877431, 0.0, 0.0, 0.0, 0.0, 0.0, 1.740058075684805E9, 0.0, 2025-02-20 13:27:55.684
77.0, -1796.4291545660235, -525.5831003729254, 8.457783749792725, -112.65139651531354, 0.0, -0.01600000075995922, 1.008000047877431, 0.0, 0.0, 0.0, 0.0, 0.0, 1.7400580756851246E9, 0.0, 2025-02-20 13:27:55.685
77.0, -2041.409431213513, -294.23662901390344, 11.760115410666913, -102.38537113694474, 0.0, -0.01600000075995922, 1.008000047877431, 0.0, 0.0, 0.0, 0.0, 0.0, 1.740058075685325E9, 0.0, 2025-02-20 13:27:55.685
78.0, -2104.1425130702555, -369.70781011972576, 16.038560959976166, 107.38187747774646, 0.0, -0.01600000075995922, 1.008000047877431, 0.0, 0.0, 0.0, 0.0, 0.0, 1.7400580756861963E9, 0.0, 2025-02-20 13:27:55.686
78.0, -2345.792408807203, -591.9663245864213, 10.888718720991164, 96.6184454052709, 0.0, -0.01600000075995922, 1.008000047877431, 0.0, 0.0, 0.0, 0.0, 0.0, 1.740058075686274E9, 0.0, 2025-02-20 13:27:55.686
79.0, -2277.7411892134696, -529.3716190280393, 13.51786838984117, -112.24748732009903, 0.0, -0.01600000075995922, 1.008000047877431, 0.0, 0.0, 0.0, 0.0, 0.0, 1.7400580757148404E9, 0.0, 2025-02-20 13:27:55.714
79.0, -2035.115179588087, -296.6563442852348, 14.164871082175523, -95.85550581431016, 0.0, -0.01600000075995922, 1.008000047877431, 0.0, 0.0, 0.0, 0.0, 0.0, 1.7400580757148917E9, 0.0, 2025-02-20 13:27:55.714
80.0, -2112.1159797757864, -368.20063043758273, 14.493982278276235, 110.56827223999426, 0.0, -0.01600000075995922, 1.008000047877431, 0.0, 0.0, 0.0, 0.0, 0.0, 1.7400580757151077E9, 0.0, 2025-02-20 13:27:55.715
80.0, -2342.153486150317, -584.3331887768582, 13.09525969484821, 97.61699869344011, 0.0, -0.01600000075995922, 1.008000047877431, 0.0, 0.0, 0.0, 0.0, 0.0, 1.74005807571516E9, 0.0, 2025-02-20 13:27:55.715
81.0, -2275.504729039967, -521.3831927226856, 9.609672936145216, -111.5518659283407, 0.0, -0.01600000075995922, 1.008000047877431, 0.0, 0.0, 0.0, 0.0, 0.0, 1.7400580757163737E9, 0.0, 2025-02-20 13:27:55.716
81.0, -2045.8449525609612, -288.78385487850755, 13.244855693075806, -95.90786441368982, 0.0, -0.01600000075995922, 1.008000047877431, 0.0, 0.0, 0.0, 0.0, 0.0, 1.7400580757164211E9, 0.0, 2025-02-20 13:27:55.716
82.0, -2111.78312867973, -355.6869251858443, 17.186710246372968, 116.30527877202258, 0.0, -0.01600000075995922, 1.008000047877431, 0.0, 0.0, 0.0, 0.0, 0.0, 1.7400580757451637E9, 0.0, 2025-02-20 13:27:55.745
82.0, -2339.221404585056, -567.4998990762979, 14.430403979029506, 95.51143501838669, 0.0, -0.01600000075995922, 1.008000047877431, 0.0, 0.0, 0.0, 0.0, 0.0, 1.7400580757452283E9, 0.0, 2025-02-20 13:27:55.745
83.0, -2266.0427821520716, -495.4208072302863, 9.553574436809868, -113.56393210450187, 0.0, -0.01600000075995922, 1.008000047877431, 0.0, 0.0, 0.0, 0.0, 0.0, 1.7400580757454748E9, 0.0, 2025-02-20 13:27:55.745
83.0, -2040.6876305220649, -289.3897186713293, 9.4301577382721, -95.49273551860824, 0.0, -0.01600000075995922, 1.008000047877431, 0.0, 0.0, 0.0, 0.0, 0.0, 1.740058075745642E9, 0.0, 2025-02-20 13:27:55.745
84.0, -2123.6460913391784, -371.60767929721624, 14.31072718044743, 117.34123105974868, 0.0, -0.01600000075995922, 1.008000047877431, 0.0, 0.0, 0.0, 0.0, 0.0, 1.74005807574596E9, 0.0, 2025-02-20 13:27:55.745
84.0, -2347.351947088726, -575.3237697836012, 14.759515175130218, 98.2153826863505, 0.0, -0.01600000075995922, 1.008000047877431, 0.0, 0.0, 0.0, 0.0, 0.0, 1.7400580757460082E9, 0.0, 2025-02-20 13:27:55.746
85.0, -2275.2691153427586, -505.04356981627643, 9.250642540398985, -105.98315489431843, 0.0, -0.01600000075995922, 1.008000047877431, 0.0, 0.0, 0.0, 0.0, 0.0, 1.7400580757750754E9, 0.0, 2025-02-20 13:27:55.775
85.0, -2052.0270071877167, -297.67733697313815, 9.007549043279141, -95.38801831984892, 0.0, -0.01600000075995922, 1.008000047877431, 0.0, 0.0, 0.0, 0.0, 0.0, 1.740058075775258E9, 0.0, 2025-02-20 13:27:55.775
86.0, -2133.152917026542, -379.71952230110765, 14.052674083504826, 114.78313949005678, 0.0, -0.01600000075995922, 1.008000047877431, 0.0, 0.0, 0.0, 0.0, 0.0, 1.7400580757753687E9, 0.0, 2025-02-20 13:27:55.775
86.0, -2339.2139247851446, -578.1062553506345, 8.996329343412071, 94.99906872445717, 0.0, -0.01600000075995922, 1.008000047877431, 0.0, 0.0, 0.0, 0.0, 0.0, 1.7400580757754798E9, 0.0, 2025-02-20 13:27:55.775
87.0, -2268.413878723979, -495.798537125811, 11.0607541189529, -111.67902252683416, 0.0, -0.01600000075995922, 1.008000047877431, 0.0, 0.0, 0.0, 0.0, 0.0, 1.740058075776106E9, 0.0, 2025-02-20 13:27:55.776
87.0, -2056.653263432905, -297.9615693697706, 9.755529034417123, -90.05118108307943, 0.0, -0.01600000075995922, 1.008000047877431, 0.0, 0.0, 0.0, 0.0, 0.0, 1.7400580757761695E9, 0.0, 2025-02-20 13:27:55.776
88.0, -2127.737541890703, -367.92761774081737, 15.92636396130547, 117.45342805841938, 0.0, -0.01600000075995922, 1.008000047877431, 0.0, 0.0, 0.0, 0.0, 0.0, 1.7400580758050392E9, 0.0, 2025-02-20 13:27:55.805
88.0, -2341.020296463743, -583.3159359889105, 12.814767198171467, 87.837160309311, 0.0, -0.01600000075995922, 1.008000047877431, 0.0, 0.0, 0.0, 0.0, 0.0, 1.740058075805118E9, 0.0, 2025-02-20 13:27:55.805
89.0, -2268.4662373233587, -500.48089187033474, 8.154851853381842, -114.35679089510813, 0.0, -0.01600000075995922, 1.008000047877431, 0.0, 0.0, 0.0, 0.0, 0.0, 1.740058075805256E9, 0.0, 2025-02-20 13:27:55.805
89.0, -2059.402089900337, -307.01960706245154, 12.081746806856245, -90.11101948237047, 0.0, -0.01600000075995922, 1.008000047877431, 0.0, 0.0, 0.0, 0.0, 0.0, 1.7400580758053894E9, 0.0, 2025-02-20 13:27:55.805
90.0, -2129.356918571517, -382.838598864153, 15.245702169369906, 117.42724875872955, 0.0, -0.01600000075995922, 1.008000047877431, 0.0, 0.0, 0.0, 0.0, 0.0, 1.740058075806118E9, 0.0, 2025-02-20 13:27:55.806
90.0, -2336.5473761167377, -572.3094104193151, 14.965209672693163, 88.25976900430396, 0.0, -0.01600000075995922, 1.008000047877431, 0.0, 0.0, 0.0, 0.0, 0.0, 1.7400580758062024E9, 0.0, 2025-02-20 13:27:55.806
91.0, -2258.574201940559, -496.65497421566397, 9.04120814288035, -116.84008446568623, 0.0, -0.01600000075995922, 1.008000047877431, 0.0, 0.0, 0.0, 0.0, 0.0, 1.7400580758347545E9, 0.0, 2025-02-20 13:27:55.834
91.0, -2055.834225342609, -308.86711764056236, 11.939630608540028, -90.29053468024358, 0.0, -0.01600000075995922, 1.008000047877431, 0.0, 0.0, 0.0, 0.0, 0.0, 1.7400580758348217E9, 0.0, 2025-02-20 13:27:55.834
92.0, -2135.7895464953035, -389.71627488266677, 13.259815292898566, 117.48708715802059, 0.0, -0.01600000075995922, 1.008000047877431, 0.0, 0.0, 0.0, 0.0, 0.0, 1.7400580758349695E9, 0.0, 2025-02-20 13:27:55.834
92.0, -2341.6972183557227, -576.688833267428, 10.009842231404036, 89.94646388432011, 0.0, -0.01600000075995922, 1.008000047877431, 0.0, 0.0, 0.0, 0.0, 0.0, 1.740058075835009E9, 0.0, 2025-02-20 13:27:55.835
93.0, -2261.6035209046677, -497.73206540290266, 8.540061548817903, -121.23446691362187, 0.0, -0.01600000075995922, 1.008000047877431, 0.0, 0.0, 0.0, 0.0, 0.0, 1.7400580758360512E9, 0.0, 2025-02-20 13:27:55.836
93.0, -2070.5769109679386, -313.98330077994615, 12.560454001184553, -90.84029997373, 0.0, -0.01600000075995922, 1.008000047877431, 0.0, 0.0, 0.0, 0.0, 0.0, 1.7400580758361259E9, 0.0, 2025-02-20 13:27:55.836
94.0, -2147.1775418603793, -390.6736892713234, 14.69593687588349, 122.56961119780317, 0.0, -0.01600000075995922, 1.008000047877431, 0.0, 0.0, 0.0, 0.0, 0.0, 1.7400580758647542E9, 0.0, 2025-02-20 13:27:55.864
94.0, -2337.908699700609, -577.9080406529829, 12.69509039958939, 93.12911874661222, 0.0, -0.01600000075995922, 1.008000047877431, 0.0, 0.0, 0.0, 0.0, 0.0, 1.7400580758648396E9, 0.0, 2025-02-20 13:27:55.864
95.0, -2254.568769088015, -490.4280407894403, 8.813074245583266, -118.60157734481618, 0.0, -0.01600000075995922, 1.008000047877431, 0.0, 0.0, 0.0, 0.0, 0.0, 1.7400580758649852E9, 0.0, 2025-02-20 13:27:55.864
95.0, -2066.0665916213766, -313.02588639128953, 13.570226989220828, -87.96805680776015, 0.0, -0.01600000075995922, 1.008000047877431, 0.0, 0.0, 0.0, 0.0, 0.0, 1.7400580758650324E9, 0.0, 2025-02-20 13:27:55.865
96.0, -2141.642489925958, -397.8580370862037, 13.46176989050582, 122.8538435944356, 0.0, -0.01600000075995922, 1.008000047877431, 0.0, 0.0, 0.0, 0.0, 0.0, 1.7400580758661053E9, 0.0, 2025-02-20 13:27:55.866
96.0, -2341.525182957761, -562.5183523353189, 10.608226224314421, 86.03826843062416, 0.0, -0.01600000075995922, 1.008000047877431, 0.0, 0.0, 0.0, 0.0, 0.0, 1.740058075866429E9, 0.0, 2025-02-20 13:27:55.866
97.0, -2249.0524166533723, -478.87548982631415, 9.228203140664846, -122.42375509953126, 0.0, -0.01600000075995922, 1.008000047877431, 0.0, 0.0, 0.0, 0.0, 0.0, 1.7400580758959496E9, 0.0, 2025-02-20 13:27:55.895
97.0, -2056.017480440438, -302.744901413098, 9.647071935702115, -85.73907643416896, 0.0, -0.01600000075995922, 1.008000047877431, 0.0, 0.0, 0.0, 0.0, 0.0, 1.7400580758960524E9, 0.0, 2025-02-20 13:27:55.896
98.0, -2140.1465299436823, -394.8848166214302, 12.597853000741452, 123.35873008845374, 0.0, -0.01600000075995922, 1.008000047877431, 0.0, 0.0, 0.0, 0.0, 0.0, 1.7400580758961432E9, 0.0, 2025-02-20 13:27:55.896
98.0, -2324.3066835617647, -562.3687563370913, 13.229896093253046, 83.05382826598361, 0.0, -0.01600000075995922, 1.008000047877431, 0.0, 0.0, 0.0, 0.0, 0.0, 1.7400580758961902E9, 0.0, 2025-02-20 13:27:55.896
99.0, -2233.356056539342, -478.17986843455583, 5.948310879524797, -124.30492477724329, 0.0, -0.01600000075995922, 1.008000047877431, 0.0, 0.0, 0.0, 0.0, 0.0, 1.740058075896318E9, 0.0, 2025-02-20 13:27:55.896
99.0, -2059.5292464988306, -312.23676750063896, 12.70257019950077, -86.48705642530695, 0.0, -0.01600000075995922, 1.008000047877431, 0.0, 0.0, 0.0, 0.0, 0.0, 1.740058075896397E9, 0.0, 2025-02-20 13:27:55.896
100.0, -2144.645629590377, -395.71881431154907, 17.022154648322612, 123.23531338991597, 0.0, -0.01600000075995922, 1.008000047877431, 0.0, 0.0, 0.0, 0.0, 0.0, 1.7400580759247608E9, 0.0, 2025-02-20 13:27:55.924
100.0, -2313.722766687162, -567.6943738739938, 14.561300477478653, 79.25035001104698, 0.0, -0.01600000075995922, 1.008000047877431, 0.0, 0.0, 0.0, 0.0, 0.0, 1.7400580759248405E9, 0.0, 2025-02-20 13:27:55.924
0.0, 223.80122319841757, 14.982039222493768, 8.095013454090804, -128.09157348237932, 0.0, -0.01600000075995922, 1.008000047877431, 0.0, 0.0, 0.0, 0.0, 0.0, 1.7400580759250348E9, 0.0, 2025-02-20 13:27:55.925
1.0, 379.377321455162, 171.7137665655464, 11.374905715230852, -86.50388597510755, 0.0, -0.01600000075995922, 1.008000047877431, 0.0, 0.0, 0.0, 0.0, 0.0, 1.7400580759258275E9, 0.0, 2025-02-20 13:27:55.925
1.0, 306.9466790133156, 81.16704873833805, 15.354159268084913, 122.85197364445776, 0.0, -0.01600000075995922, 1.008000047877431, 0.0, 0.0, 0.0, 0.0, 0.0, 1.740058075925883E9, 0.0, 2025-02-20 13:27:55.925
2.0, 132.895474975463, -73.26090023200959, 10.903678320813924, 77.88341657724231, 0.0, -0.01600000075995922, 1.008000047877431, 0.0, 0.0, 0.0, 0.0, 0.0, 1.7400580759265468E9, 0.0, 2025-02-20 13:27:55.926
2.0, 221.4151670266874, 15.629041914828122, 8.68217774713412, -127.86343958508223, 0.0, -0.01600000075995922, 1.008000047877431, 0.0, 0.0, 0.0, 0.0, 0.0, 1.7400580759266205E9, 0.0, 2025-02-20 13:27:55.926
3.0, 387.77713675564155, 173.77819134108722, 13.723562887404114, -85.33329728897661, 0.0, -0.01600000075995922, 1.008000047877431, 0.0, 0.0, 0.0, 0.0, 0.0, 1.740058075954953E9, 0.0, 2025-02-20 13:27:55.954
3.0, 296.6731738350354, 70.71776826214045, 20.533920706715435, 124.54614832438529, 0.0, -0.01600000075995922, 1.008000047877431, 0.0, 0.0, 0.0, 0.0, 0.0, 1.7400580759550052E9, 0.0, 2025-02-20 13:27:55.955
4.0, 134.27923795906827, -76.1817620974034, 10.447410526219755, 76.87738348916173, 0.0, -0.01600000075995922, 1.008000047877431, 0.0, 0.0, 0.0, 0.0, 0.0, 1.7400580759553971E9, 0.0, 2025-02-20 13:27:55.955
4.0, 221.28053062828258, 15.543024215847254, 9.4301577382721, -126.25528260413557, 0.0, -0.01600000075995922, 1.008000047877431, 0.0, 0.0, 0.0, 0.0, 0.0, 1.7400580759554372E9, 0.0, 2025-02-20 13:27:55.955
5.0, 384.0895953993313, 178.65876078326255, 16.29661405691877, -80.50508644618094, 0.0, -0.01600000075995922, 1.008000047877431, 0.0, 0.0, 0.0, 0.0, 0.0, 1.7400580759846854E9, 0.0, 2025-02-20 13:27:55.984
5.0, 295.10615575360134, 76.82128498982638, 12.403378203045577, 128.686217575334, 0.0, -0.01600000075995922, 1.008000047877431, 0.0, 0.0, 0.0, 0.0, 0.0, 1.7400580759847562E9, 0.0, 2025-02-20 13:27:55.984
6.0, 135.40868774568662, -70.26150046754628, 13.158837994094938, 75.22808760870248, 0.0, -0.01600000075995922, 1.008000047877431, 0.0, 0.0, 0.0, 0.0, 0.0, 1.740058075985221E9, 0.0, 2025-02-20 13:27:55.985
6.0, 220.03514394303784, 18.49754518084228, 10.144478629808873, -129.99892245978117, 0.0, -0.01600000075995922, 1.008000047877431, 0.0, 0.0, 0.0, 0.0, 0.0, 1.740058075985324E9, 0.0, 2025-02-20 13:27:55.985
7.0, 379.6091952524148, 166.25725253019482, 13.989095784258097, -73.65358972735703, 0.0, -0.01600000075995922, 1.008000047877431, 0.0, 0.0, 0.0, 0.0, 0.0, 1.7400580759857132E9, 0.0, 2025-02-20 13:27:55.985
7.0, 283.8303573871963, 69.27790677919984, 12.612812600564212, 128.42068467848003, 0.0, -0.01600000075995922, 1.008000047877431, 0.0, 0.0, 0.0, 0.0, 0.0, 1.7400580759857545E9, 0.0, 2025-02-20 13:27:55.985
8.0, 135.76397824147716, -70.77012686152011, 11.326287015806884, 78.75481326691806, 0.0, -0.01600000075995922, 1.008000047877431, 0.0, 0.0, 0.0, 0.0, 0.0, 1.7400580759865592E9, 0.0, 2025-02-20 13:27:55.986
8.0, 219.6761135472916, 21.018237750977278, 6.6214928715489805, -127.94197748415172, 0.0, -0.01600000075995922, 1.008000047877431, 0.0, 0.0, 0.0, 0.0, 0.0, 1.740058075986624E9, 0.0, 2025-02-20 13:27:55.986
9.0, 383.6482872045599, 168.4151748046279, 11.06449401890859, -75.69183520320803, 0.0, -0.01600000075995922, 1.008000047877431, 0.0, 0.0, 0.0, 0.0, 0.0, 1.7400580760147374E9, 0.0, 2025-02-20 13:27:56.014
9.0, 293.7223927699961, 74.37165051884949, 14.542600977700204, 125.34274701494724, 0.0, -0.01600000075995922, 1.008000047877431, 0.0, 0.0, 0.0, 0.0, 0.0, 1.7400580760149148E9, 0.0, 2025-02-20 13:27:56.014
10.0, 140.68942648312077, -66.56647931132466, 9.654551735613495, 75.01491331122816, 0.0, -0.01600000075995922, 0.9920000471174717, 0.0, 0.0, 0.0, 0.0, 0.0, 1.740058076015225E9, 0.0, 2025-02-20 13:27:56.015
10.0, 236.55054214736447, 33.662839501164854, 9.198283941019326, -130.88527874927968, 0.0, -0.01600000075995922, 0.9920000471174717, 0.0, 0.0, 0.0, 0.0, 0.0, 1.7400580760152829E9, 0.0, 2025-02-20 13:27:56.015
11.0, 373.92080741981044, 162.16580197867006, 9.355359739158303, -76.00972669944167, 0.0, -0.01600000075995922, 0.9920000471174717, 0.0, 0.0, 0.0, 0.0, 0.0, 1.7400580760452657E9, 0.0, 2025-02-20 13:27:56.045
11.0, 292.1852938882075, 68.18959589209408, 13.790881086606532, 128.58898017648607, 0.0, -0.01600000075995922, 0.9920000471174717, 0.0, 0.0, 0.0, 0.0, 0.0, 1.7400580760457306E9, 0.0, 2025-02-20 13:27:56.045
12.0, 142.4920582617633, -62.49372825957835, 8.828033845406026, 76.61933039221913, 0.0, -0.01600000075995922, 0.9920000471174717, 0.0, 0.0, 0.0, 0.0, 0.0, 1.7400580760459225E9, 0.0, 2025-02-20 13:27:56.045
12.0, 243.62643286352977, 33.10933430772275, 9.467556737829, -130.8441398497671, 0.0, -0.01600000075995922, 0.9920000471174717, 0.0, 0.0, 0.0, 0.0, 0.0, 1.740058076046126E9, 0.0, 2025-02-20 13:27:56.046
13.0, 383.62584780482575, 159.58153110928833, 14.217229681555182, -81.14460933860391, 0.0, -0.01600000075995922, 0.9920000471174717, 0.0, 0.0, 0.0, 0.0, 0.0, 1.7400580760465484E9, 0.0, 2025-02-20 13:27:56.046
13.0, 286.06681756069884, 62.202016063034534, 16.371412056032568, 128.26360888034105, 0.0, -0.01600000075995922, 0.9920000471174717, 0.0, 0.0, 0.0, 0.0, 0.0, 1.740058076046661E9, 0.0, 2025-02-20 13:27:56.046
14.0, 148.9807846848853, -62.187056463211775, 15.615952264983207, 60.65369748137891, 0.0, -0.01600000075995922, 0.9920000471174717, 0.0, 0.0, 0.0, 0.0, 0.0, 1.7400580760469563E9, 0.0, 2025-02-20 13:27:56.046
14.0, 244.29961485555395, 33.81243549939245, 10.798961122054607, -136.59984588157386, 0.0, -0.01600000075995922, 0.9920000471174717, 0.0, 0.0, 0.0, 0.0, 0.0, 1.7400580760470052E9, 0.0, 2025-02-20 13:27:56.047
15.0, 378.412427266594, 157.2627931367606, 8.947710643988103, -82.83878401853144, 0.0, -0.01600000075995922, 0.9920000471174717, 0.0, 0.0, 0.0, 0.0, 0.0, 1.7400580760751243E9, 0.0, 2025-02-20 13:27:56.075
15.0, 282.39049590425566, 62.06363976467401, 17.291427445132285, 119.52720258384943, 0.0, -0.01600000075995922, 0.9920000471174717, 0.0, 0.0, 0.0, 0.0, 0.0, 1.7400580760752501E9, 0.0, 2025-02-20 13:27:56.075
16.0, 152.93011903809384, -57.22794912196696, 14.153651382308453, 55.702069940045476, 0.0, -0.01600000075995922, 0.9920000471174717, 0.0, 0.0, 0.0, 0.0, 0.0, 1.740058076075379E9, 0.0, 2025-02-20 13:27:56.075
16.0, 248.97074990021065, 35.87686027493328, 10.032281631138176, -145.65414367429912, 0.0, -0.01600000075995922, 0.9920000471174717, 0.0, 0.0, 0.0, 0.0, 0.0, 1.7400580760754185E9, 0.0, 2025-02-20 13:27:56.075
17.0, 383.65950690442696, 153.67622907925397, 8.169811453204602, -87.23690636642277, 0.0, -0.01600000075995922, 0.9920000471174717, 0.0, 0.0, 0.0, 0.0, 0.0, 1.7400580761047075E9, 0.0, 2025-02-20 13:27:56.104
17.0, 279.46963403886184, 63.58951894659549, 13.47672949032858, 120.1293264767155, 0.0, -0.01600000075995922, 0.9920000471174717, 0.0, 0.0, 0.0, 0.0, 0.0, 1.7400580761047988E9, 0.0, 2025-02-20 13:27:56.104
18.0, 149.4258327796124, -52.66153127606958, 12.369719103444368, 54.568880253471434, 0.0, -0.01600000075995922, 0.9920000471174717, 0.0, 0.0, 0.0, 0.0, 0.0, 1.7400580761051824E9, 0.0, 2025-02-20 13:27:56.105
18.0, 247.32893381966278, 38.15819924790412, 7.982816455420107, -140.04055384080857, 0.0, -0.01600000075995922, 0.9920000471174717, 0.0, 0.0, 0.0, 0.0, 0.0, 1.740058076105246E9, 0.0, 2025-02-20 13:27:56.105
19.0, 367.1141895004548, 146.53676006384194, 12.115405906457454, -79.36815685965121, 0.0, -0.01600000075995922, 0.9920000471174717, 0.0, 0.0, 0.0, 0.0, 0.0, 1.7400580761057892E9, 0.0, 2025-02-20 13:27:56.105
19.0, 263.4366829288192, 49.86408610921353, 15.649611364584416, 127.16033839341253, 0.0, -0.01600000075995922, 0.9920000471174717, 0.0, 0.0, 0.0, 0.0, 0.0, 1.7400580761058438E9, 0.0, 2025-02-20 13:27:56.105
20.0, 143.91696014488116, -54.565140353515744, 12.156544805970043, 63.72789524495602, 0.0, -0.01600000075995922, 0.9920000471174717, 0.0, 0.0, 0.0, 0.0, 0.0, 1.7400580761067479E9, 0.0, 2025-02-20 13:27:56.106
20.0, 255.50061522284523, 41.72606380563229, 11.07945361873135, -135.23478239774704, 0.0, -0.01600000075995922, 0.9920000471174717, 0.0, 0.0, 0.0, 0.0, 0.0, 1.7400580761067936E9, 0.0, 2025-02-20 13:27:56.106
21.0, 360.94335457356647, 145.94585587084293, 10.597006524447352, -69.8875104719773, 0.0, 0.0, 0.9920000471174717, 0.0, 0.0, 0.0, 0.0, 0.0, 1.7400580761348042E9, 0.0, 2025-02-20 13:27:56.134
21.0, 258.6608306854032, 42.77323579322547, 13.024201595690101, 135.26096169743687, 0.0, 0.0, 0.9920000471174717, 0.0, 0.0, 0.0, 0.0, 0.0, 1.7400580761348743E9, 0.0, 2025-02-20 13:27:56.134
22.0, 153.33028833335266, -56.2480953335762, 9.370319338981062, 61.768187668174505, 0.0, 0.0, 0.9920000471174717, 0.0, 0.0, 0.0, 0.0, 0.0, 1.7400580761353276E9, 0.0, 2025-02-20 13:27:56.135
22.0, 250.51906848186627, 36.871673663146794, 11.292627916205674, -137.75173506792635, 0.0, 0.0, 0.9920000471174717, 0.0, 0.0, 0.0, 0.0, 0.0, 1.7400580761353803E9, 0.0, 2025-02-20 13:27:56.135
23.0, 358.4862403026782, 142.11993821617216, 13.248595593031496, -72.03795294649899, 0.0, 0.0, 0.9920000471174717, 0.0, 0.0, 0.0, 0.0, 0.0, 1.7400580761650188E9, 0.0, 2025-02-20 13:27:56.165
23.0, 265.57590570347384, 46.494436249136925, 13.319653692189604, 132.59067312907428, 0.0, 0.0, 0.9920000471174717, 0.0, 0.0, 0.0, 0.0, 0.0, 1.740058076165102E9, 0.0, 2025-02-20 13:27:56.165
24.0, 158.07622137712315, -49.44521731417626, 10.933597520459443, 57.878691714257, 0.0, 0.0, 0.9920000471174717, 0.0, 0.0, 0.0, 0.0, 0.0, 1.7400580761652E9, 0.0, 2025-02-20 13:27:56.165
24.0, 255.93444361770526, 45.59686025977135, 12.186464005615562, -138.9148439541459, 0.0, 0.0, 0.9920000471174717, 0.0, 0.0, 0.0, 0.0, 0.0, 1.740058076165239E9, 0.0, 2025-02-20 13:27:56.165
25.0, 360.5581448781304, 142.61360501032323, 11.378645615186542, -62.77422075625509, 0.0, 0.0, 0.9920000471174717, 0.0, 0.0, 0.0, 0.0, 0.0, 1.7400580761656497E9, 0.0, 2025-02-20 13:27:56.165
25.0, 255.6614309209399, 35.196198482997715, 16.442470155190676, 143.2157289031893, 0.0, 0.0, 0.9920000471174717, 0.0, 0.0, 0.0, 0.0, 0.0, 1.7400580761657336E9, 0.0, 2025-02-20 13:27:56.165
26.0, 159.1720120641403, -48.914151520468295, 16.27417465718463, 62.44136966019869, 0.0, 0.0, 0.9920000471174717, 0.0, 0.0, 0.0, 0.0, 0.0, 1.740058076166629E9, 0.0, 2025-02-20 13:27:56.166
26.0, 266.4847013927065, 49.86034620925784, 10.873759121168405, -134.81591360270977, 0.0, 0.0, 0.9920000471174717, 0.0, 0.0, 0.0, 0.0, 0.0, 1.7400580761667647E9, 0.0, 2025-02-20 13:27:56.166
27.0, 362.8207843513228, 140.60527873411775, 10.29407462803647, -55.04010764788836, 0.0, 0.0, 0.9920000471174717, 0.0, 0.0, 0.0, 0.0, 0.0, 1.7400580761949487E9, 0.0, 2025-02-20 13:27:56.194
27.0, 258.1783835911192, 40.806048416532576, 14.434143878985196, 144.1768831918016, 0.0, 0.0, 0.9920000471174717, 0.0, 0.0, 0.0, 0.0, 0.0, 1.740058076195061E9, 0.0, 2025-02-20 13:27:56.195
28.0, 166.78644837392494, -48.02779523096979, 12.27996150450781, 71.02817995846272, 0.0, 0.0, 0.9920000471174717, 0.0, 0.0, 0.0, 0.0, 0.0, 1.7400580761954973E9, 0.0, 2025-02-20 13:27:56.195
28.0, 272.472281221766, 50.02864170726389, 6.595313571859151, -131.53602134156972, 0.0, 0.0, 0.9920000471174717, 0.0, 0.0, 0.0, 0.0, 0.0, 1.7400580761956377E9, 0.0, 2025-02-20 13:27:56.195
29.0, 362.84322375105694, 132.35131953191012, 13.401931491214782, -57.321446620859206, 0.0, 0.0, 0.9920000471174717, 0.0, 0.0, 0.0, 0.0, 0.0, 1.7400580762247884E9, 0.0, 2025-02-20 13:27:56.224
29.0, 253.0995994512923, 27.37980757560581, 15.963762960862368, 144.01606749370694, 0.0, 0.0, 0.9920000471174717, 0.0, 0.0, 0.0, 0.0, 0.0, 1.7400580762248828E9, 0.0, 2025-02-20 13:27:56.224
30.0, 167.81492086173967, -43.296821787022054, 12.567933801095933, 66.9591688066721, 0.0, 0.0, 1.008000047877431, 0.0, 0.0, 0.0, 0.0, 0.0, 1.740058076225041E9, 0.0, 2025-02-20 13:27:56.225
30.0, 269.67857595486566, 48.917891420423985, 9.811627533752471, -130.3168139560148, 0.0, 0.0, 1.008000047877431, 0.0, 0.0, 0.0, 0.0, 0.0, 1.740058076225108E9, 0.0, 2025-02-20 13:27:56.225
31.0, 356.91174242133275, 131.9174911370501, 10.64936512382701, -47.702423934824765, 0.0, -0.01600000075995922, 1.008000047877431, 0.0, 0.0, 0.0, 0.0, 0.0, 1.74005807622565E9, 0.0, 2025-02-20 13:27:56.225
31.0, 252.81910695461556, 29.253497453406453, 15.223262769635767, 143.15963040385395, 0.0, -0.01600000075995922, 1.008000047877431, 0.0, 0.0, 0.0, 0.0, 0.0, 1.7400580762257009E9, 0.0, 2025-02-20 13:27:56.225
32.0, 166.98092317162082, -45.01717576663941, 13.140138494316489, 58.2863408094272, 0.0, -0.01600000075995922, 1.008000047877431, 0.0, 0.0, 0.0, 0.0, 0.0, 1.7400580762264853E9, 0.0, 2025-02-20 13:27:56.226
32.0, 279.3088183407672, 57.20924962218851, 11.337506715673953, -137.5497804703191, 0.0, -0.01600000075995922, 1.008000047877431, 0.0, 0.0, 0.0, 0.0, 0.0, 1.7400580762265184E9, 0.0, 2025-02-20 13:27:56.226
33.0, 355.8982295333408, 120.6491725705564, 10.2454559286125, -64.47961513604969, 0.0, -0.01600000075995922, 1.008000047877431, 0.0, 0.0, 0.0, 0.0, 0.0, 1.7400580762546732E9, 0.0, 2025-02-20 13:27:56.254
33.0, 244.56140785245225, 19.941146563738585, 14.355605979915708, 137.05237377621233, 0.0, -0.01600000075995922, 1.008000047877431, 0.0, 0.0, 0.0, 0.0, 0.0, 1.7400580762547257E9, 0.0, 2025-02-20 13:27:56.254
34.0, 169.8045476381667, -32.776483211666346, 7.141338965389878, 51.307687492109835, 0.0, -0.01600000075995922, 1.008000047877431, 0.0, 0.0, 0.0, 0.0, 0.0, 1.7400580762552617E9, 0.0, 2025-02-20 13:27:56.255
34.0, 273.84108460554853, 64.78254703246057, 9.467556737829, -143.56727949902415, 0.0, -0.01600000075995922, 1.008000047877431, 0.0, 0.0, 0.0, 0.0, 0.0, 1.7400580762552931E9, 0.0, 2025-02-20 13:27:56.255
35.0, 342.9880948862992, 121.16527876444161, 14.164871082175523, -55.93394373729825, 0.0, -0.01600000075995922, 1.008000047877431, 0.0, 0.0, 0.0, 0.0, 0.0, 1.7400580762847426E9, 0.0, 2025-02-20 13:27:56.284
35.0, 239.1647322163917, 16.186287008225918, 15.615952264983207, 143.2867870023474, 0.0, -0.01600000075995922, 1.008000047877431, 0.0, 0.0, 0.0, 0.0, 0.0, 1.740058076284814E9, 0.0, 2025-02-20 13:27:56.284
36.0, 172.3925584075041, -45.694097658619285, 9.516175437252969, 56.925017225556076, 0.0, -0.01600000075995922, 1.008000047877431, 0.0, 0.0, 0.0, 0.0, 0.0, 1.7400580762848964E9, 0.0, 2025-02-20 13:27:56.284
36.0, 274.3983296989463, 58.23772211000323, 5.664078482892364, -136.86911867838353, 0.0, -0.01600000075995922, 1.008000047877431, 0.0, 0.0, 0.0, 0.0, 0.0, 1.7400580762850313E9, 0.0, 2025-02-20 13:27:56.285
37.0, 338.68720993725583, 118.17709869984537, 11.03831471921876, -51.352566291578114, 0.0, -0.01600000075995922, 1.008000047877431, 0.0, 0.0, 0.0, 0.0, 0.0, 1.7400580762856274E9, 0.0, 2025-02-20 13:27:56.285
37.0, 241.93225818360224, 16.979145798832178, 13.577706789132208, 146.5853787632659, 0.0, -0.01600000075995922, 1.008000047877431, 0.0, 0.0, 0.0, 0.0, 0.0, 1.740058076285664E9, 0.0, 2025-02-20 13:27:56.285
38.0, 179.5881259222515, -33.3486879048869, 8.588680248241872, 63.24544815067202, 0.0, -0.01600000075995922, 1.008000047877431, 0.0, 0.0, 0.0, 0.0, 0.0, 1.7400580762866883E9, 0.0, 2025-02-20 13:27:56.286
38.0, 285.58811036637053, 64.584332334809, 13.327133492100984, -136.03512098826468, 0.0, -0.01600000075995922, 1.008000047877431, 0.0, 0.0, 0.0, 0.0, 0.0, 1.7400580762867606E9, 0.0, 2025-02-20 13:27:56.286
39.0, 335.79252737155184, 112.84400136303157, 10.727903022896498, -49.89774520881474, 0.0, -0.01600000075995922, 1.008000047877431, 0.0, 0.0, 0.0, 0.0, 0.0, 1.7400580763153536E9, 0.0, 2025-02-20 13:27:56.315
39.0, 239.8042551088147, 8.06322430446744, 9.299261239822954, 152.91702938824892, 0.0, -0.01600000075995922, 1.008000047877431, 0.0, 0.0, 0.0, 0.0, 0.0, 1.7400580763157098E9, 0.0, 2025-02-20 13:27:56.315
40.0, 186.83979193633422, -28.711211959831417, 10.750342422630638, 57.11949202325195, 0.0, -0.01600000075995922, 1.008000047877431, 0.0, 0.0, 0.0, 0.0, 0.0, 1.7400580763162353E9, 0.0, 2025-02-20 13:27:56.316
40.0, 289.1185759245418, 66.80209300853312, 10.107079630251974, -138.768987855874, 0.0, -0.01600000075995922, 1.008000047877431, 0.0, 0.0, 0.0, 0.0, 0.0, 1.74005807631631E9, 0.0, 2025-02-20 13:27:56.316
41.0, 334.64811798511073, 108.8310887105763, 12.496875701937824, -38.66682564187795, 0.0, -0.01600000075995922, 1.008000047877431, 0.0, 0.0, 0.0, 0.0, 0.0, 1.7400580763446677E9, 0.0, 2025-02-20 13:27:56.344
41.0, 232.36559409694746, 9.809757583774626, 13.364532491657883, 154.9290955644101, 0.0, -0.01600000075995922, 1.008000047877431, 0.0, 0.0, 0.0, 0.0, 0.0, 1.7400580763448293E9, 0.0, 2025-02-20 13:27:56.344
42.0, 187.07914553349838, -32.813882211223245, 8.854213145095855, 57.2503885217011, 0.0, -0.01600000075995922, 1.008000047877431, 0.0, 0.0, 0.0, 0.0, 0.0, 1.7400580763449101E9, 0.0, 2025-02-20 13:27:56.344
42.0, 284.4923196793534, 67.35185830201954, 10.776521722320467, -137.46750267129391, 0.0, -0.01600000075995922, 1.008000047877431, 0.0, 0.0, 0.0, 0.0, 0.0, 1.7400580763449976E9, 0.0, 2025-02-20 13:27:56.344
43.0, 332.280761313159, 109.73988439980894, 10.731642922852188, -40.56669481936842, 0.0, -0.01600000075995922, 1.008000047877431, 0.0, 0.0, 0.0, 0.0, 0.0, 1.7400580763456457E9, 0.0, 2025-02-20 13:27:56.345
43.0, 226.47525166673586, 0.4375682948157191, 16.880038450006396, 152.64401669148356, 0.0, -0.01600000075995922, 1.008000047877431, 0.0, 0.0, 0.0, 0.0, 0.0, 1.7400580763456872E9, 0.0, 2025-02-20 13:27:56.345
44.0, 184.2592609669082, -34.24252399429679, 6.479376673232764, 51.62557898834348, 0.0, -0.01600000075995922, 1.008000047877431, 0.0, 0.0, 0.0, 0.0, 0.0, 1.7400580763470645E9, 0.0, 2025-02-20 13:27:56.347
44.0, 289.369149221573, 74.00888022314757, 9.531135037075728, -139.92461694218218, 0.0, -0.01600000075995922, 1.008000047877431, 0.0, 0.0, 0.0, 0.0, 0.0, 1.7400580763471274E9, 0.0, 2025-02-20 13:27:56.347
45.0, 332.1498648147099, 111.43405907973647, 11.45344361430034, -43.80170828104019, 0.0, -0.01600000075995922, 1.008000047877431, 0.0, 0.0, 0.0, 0.0, 0.0, 1.7400580763749888E9, 0.0, 2025-02-20 13:27:56.374
45.0, 223.8311423980631, 3.010619464330375, 13.674944187980145, 148.35061154235154, 0.0, -0.01600000075995922, 1.008000047877431, 0.0, 0.0, 0.0, 0.0, 0.0, 1.7400580763750715E9, 0.0, 2025-02-20 13:27:56.375
46.0, 182.29955339012668, -24.477645209990442, 10.372612527105957, 46.62907264754176, 0.0, -0.01600000075995922, 1.008000047877431, 0.0, 0.0, 0.0, 0.0, 0.0, 1.7400580763756356E9, 0.0, 2025-02-20 13:27:56.375
46.0, 291.3325966983102, 81.17078863829374, 6.64019237132743, -146.55919946357608, 0.0, -0.01600000075995922, 1.008000047877431, 0.0, 0.0, 0.0, 0.0, 0.0, 1.740058076375694E9, 0.0, 2025-02-20 13:27:56.375
47.0, 329.82364704227075, 103.07538267876953, 14.071373583283275, -44.056021478027105, 0.0, -0.01600000075995922, 1.008000047877431, 0.0, 0.0, 0.0, 0.0, 0.0, 1.7400580764049287E9, 0.0, 2025-02-20 13:27:56.404
47.0, 216.05589039018378, -4.678614844568074, 11.08693341864273, 152.35230449493974, 0.0, -0.01600000075995922, 1.008000047877431, 0.0, 0.0, 0.0, 0.0, 0.0, 1.7400580764050345E9, 0.0, 2025-02-20 13:27:56.405
48.0, 191.49970728112385, -21.38474794663489, 8.869172744918615, 51.88363208528608, 0.0, -0.01600000075995922, 1.008000047877431, 0.0, 0.0, 0.0, 0.0, 0.0, 1.7400580764052205E9, 0.0, 2025-02-20 13:27:56.405
48.0, 290.4238010090776, 72.58397834002972, 12.792327798437327, -141.09146572835743, 0.0, -0.01600000075995922, 1.008000047877431, 0.0, 0.0, 0.0, 0.0, 0.0, 1.7400580764052806E9, 0.0, 2025-02-20 13:27:56.405
49.0, 325.4704034938477, 96.22762585990131, 13.140138494316489, -32.742824112065136, 0.0, -0.01600000075995922, 1.008000047877431, 0.0, 0.0, 0.0, 0.0, 0.0, 1.740058076405949E9, 0.0, 2025-02-20 13:27:56.405
49.0, 209.09967647260055, -22.53663713298738, 14.31072718044743, 157.78637913055718, 0.0, -0.01600000075995922, 1.008000047877431, 0.0, 0.0, 0.0, 0.0, 0.0, 1.7400580764060485E9, 0.0, 2025-02-20 13:27:56.406
50.0, 184.65569036221132, -47.99413613136858, 13.779661386739463, 55.1747440462932, 0.0, -0.01600000075995922, 0.9920000471174717, 0.0, 0.0, 0.0, 0.0, 0.0, 1.7400580764065757E9, 0.0, 2025-02-20 13:27:56.406
50.0, 302.03245047153905, 90.4120814288035, 10.043501331005245, -140.97926872968674, 0.0, -0.01600000075995922, 0.9920000471174717, 0.0, 0.0, 0.0, 0.0, 0.0, 1.7400580764066339E9, 0.0, 2025-02-20 13:27:56.406
51.0, 316.59562089899555, 99.98248541541398, 12.30614080419764, -31.979884521104395, 0.0, -0.01600000075995922, 0.9920000471174717, 0.0, 0.0, 0.0, 0.0, 0.0, 1.7400580764348607E9, 0.0, 2025-02-20 13:27:56.434
51.0, 193.48933405755088, -16.246125407516956, 17.377445144113153, 162.95118096936494, 0.0, -0.01600000075995922, 0.9920000471174717, 0.0, 0.0, 0.0, 0.0, 0.0, 1.7400580764349432E9, 0.0, 2025-02-20 13:27:56.434
52.0, 170.066340635065, -18.05997688602656, 13.409411291126162, 49.45269711408764, 0.0, -0.01600000075995922, 0.9920000471174717, 0.0, 0.0, 0.0, 0.0, 0.0, 1.74005807643534E9, 0.0, 2025-02-20 13:27:56.435
52.0, 261.71258904924616, 78.20878787338734, 4.493489796761423, -145.82243917230517, 0.0, -0.01600000075995922, 0.9920000471174717, 0.0, 0.0, 0.0, 0.0, 0.0, 1.740058076435422E9, 0.0, 2025-02-20 13:27:56.435
53.0, 282.4877333031036, 97.36455544643104, 15.040007671806961, -38.51722964365035, 0.0, -0.01600000075995922, 0.9920000471174717, 0.0, 0.0, 0.0, 0.0, 0.0, 1.740058076464969E9, 0.0, 2025-02-20 13:27:56.464
53.0, 172.18686390994117, -6.642062321305275, 16.857599050272256, 165.4868331393227, 0.0, -0.01600000075995922, 0.9920000471174717, 0.0, 0.0, 0.0, 0.0, 0.0, 1.740058076465164E9, 0.0, 2025-02-20 13:27:56.465
54.0, 145.54755652556196, -7.913628306239843, 10.832620221655816, 49.336760215461254, 0.0, -0.01600000075995922, 0.9920000471174717, 0.0, 0.0, 0.0, 0.0, 0.0, 1.7400580764656153E9, 0.0, 2025-02-20 13:27:56.465
54.0, 264.5137741160579, 91.44803371652961, 7.85191995697096, -134.68127720430493, 0.0, -0.01600000075995922, 0.9920000471174717, 0.0, 0.0, 0.0, 0.0, 0.0, 1.74005807646586E9, 0.0, 2025-02-20 13:27:56.465
55.0, 277.06113846739754, 99.06620992626995, 11.84987300960347, -29.36569445207715, 0.0, -0.01600000075995922, 0.9920000471174717, 0.0, 0.0, 0.0, 0.0, 0.0, 1.740058076466123E9, 0.0, 2025-02-20 13:27:56.466
55.0, 167.19035756913945, -8.182901103049517, 14.980169272515923, 158.6652556201443, 0.0, -0.01600000075995922, 0.9920000471174717, 0.0, 0.0, 0.0, 0.0, 0.0, 1.7400580764661849E9, 0.0, 2025-02-20 13:27:56.466
56.0, 164.0937204058282, -6.911335118114948, 10.133258929941803, 45.2079106643796, 0.0, -0.01600000075995922, 0.9920000471174717, 0.0, 0.0, 0.0, 0.0, 0.0, 1.7400580764665096E9, 0.0, 2025-02-20 13:27:56.466
56.0, 268.68376256665215, 100.09468241408467, 8.405425150413066, -146.4058635653928, 0.0, -0.01600000075995922, 0.9920000471174717, 0.0, 0.0, 0.0, 0.0, 0.0, 1.740058076466561E9, 0.0, 2025-02-20 13:27:56.466
57.0, 273.5979911084287, 88.20180055499077, 13.08777989493683, -37.73933045286685, 0.0, -0.01600000075995922, 0.9920000471174717, 0.0, 0.0, 0.0, 0.0, 0.0, 1.7400580764947526E9, 0.0, 2025-02-20 13:27:56.494
57.0, 169.4305576425977, -15.008218522183597, 14.419184279162437, 155.37788355909288, 0.0, -0.01600000075995922, 0.9920000471174717, 0.0, 0.0, 0.0, 0.0, 0.0, 1.740058076494815E9, 0.0, 2025-02-20 13:27:56.494
58.0, 179.09445912810043, 1.3351442841812968, 11.03457481926307, 38.73414384108037, 0.0, -0.01600000075995922, 0.9920000471174717, 0.0, 0.0, 0.0, 0.0, 0.0, 1.7400580764953492E9, 0.0, 2025-02-20 13:27:56.495
58.0, 287.54781794315204, 96.64275475498289, 9.950003832112998, -154.218514572829, 0.0, -0.01600000075995922, 0.9920000471174717, 0.0, 0.0, 0.0, 0.0, 0.0, 1.7400580764953887E9, 0.0, 2025-02-20 13:27:56.495
59.0, 277.6296032606624, 86.88909567054361, 11.44596381438896, -32.61940741352737, 0.0, -0.01600000075995922, 0.9920000471174717, 0.0, 0.0, 0.0, 0.0, 0.0, 1.740058076524784E9, 0.0, 2025-02-20 13:27:56.524
59.0, 171.12847222248092, -21.2688110480085, 16.977275848854333, 155.90146955288947, 0.0, -0.01600000075995922, 0.9920000471174717, 0.0, 0.0, 0.0, 0.0, 0.0, 1.7400580765248368E9, 0.0, 2025-02-20 13:27:56.524
60.0, 181.17010360350832, -4.7683724435046315, 12.556714101228863, 38.97723733820021, 0.0, -0.01600000075995922, 0.9920000471174717, 0.0, 0.0, 0.0, 0.0, 0.0, 1.740058076525032E9, 0.0, 2025-02-20 13:27:56.525
60.0, 276.5599918733351, 99.50377822108567, 9.392758738715202, -152.64401669148356, 0.0, -0.01600000075995922, 0.9920000471174717, 0.0, 0.0, 0.0, 0.0, 0.0, 1.740058076525072E9, 0.0, 2025-02-20 13:27:56.525
61.0, 274.87703689327464, 76.47721419390291, 15.144724870566279, -31.77792992349714, 0.0, -0.01600000075995922, 0.9920000471174717, 0.0, 0.0, 0.0, 0.0, 0.0, 1.7400580765256836E9, 0.0, 2025-02-20 13:27:56.525
61.0, 169.6886107395403, -28.038029967807233, 13.47298959037289, 158.71761421952397, 0.0, -0.01600000075995922, 0.9920000471174717, 0.0, 0.0, 0.0, 0.0, 0.0, 1.7400580765257237E9, 0.0, 2025-02-20 13:27:56.525
62.0, 187.4007769296877, -7.509719111025333, 12.201423605438322, 43.39405918586999, -0.01600000075995922, -0.01600000075995922, 0.9920000471174717, 0.0, 0.0, 0.0, 0.0, 0.0, 1.7400580765264685E9, 0.0, 2025-02-20 13:27:56.526
62.0, 286.040638261009, 102.18154658935964, 9.774228534195572, -142.64726410992444, -0.01600000075995922, -0.01600000075995922, 0.9920000471174717, 0.0, 0.0, 0.0, 0.0, 0.0, 1.7400580765265253E9, 0.0, 2025-02-20 13:27:56.526
63.0, 272.1394301257096, 81.64949583262205, 11.131812218111008, -32.71290491241962, -0.01600000075995922, -0.01600000075995922, 0.9920000471174717, 0.0, 0.0, 0.0, 0.0, 0.0, 1.740058076554892E9, 0.0, 2025-02-20 13:27:56.554
63.0, 171.74929561512545, -28.54665636178106, 13.364532491657883, 161.54871848598123, -0.01600000075995922, -0.01600000075995922, 0.9920000471174717, 0.0, 0.0, 0.0, 0.0, 0.0, 1.740058076555032E9, 0.0, 2025-02-20 13:27:56.555
64.0, 188.98649451090023, -3.018099264241755, 13.405671391170472, 37.90388605091721, -0.01600000075995922, -0.01600000075995922, 0.9920000471174717, 0.0, 0.0, 0.0, 0.0, 0.0, 1.740058076584785E9, 0.0, 2025-02-20 13:27:56.584
64.0, 303.8014231505804, 105.88030764553696, 7.691104258876294, -151.7726200018078, -0.01600000075995922, -0.01600000075995922, 0.9920000471174717, 0.0, 0.0, 0.0, 0.0, 0.0, 1.740058076584858E9, 0.0, 2025-02-20 13:27:56.584
65.0, 274.2636933005415, 68.5897651873529, 16.113358959089965, -29.7920430470258, -0.01600000075995922, -0.01600000075995922, 0.9920000471174717, 0.0, 0.0, 0.0, 0.0, 0.0, 1.7400580765849187E9, 0.0, 2025-02-20 13:27:56.584
65.0, 179.19543642690405, -31.38898032810539, 16.132058458868414, 157.95467462856323, -0.01600000075995922, -0.01600000075995922, 0.9920000471174717, 0.0, 0.0, 0.0, 0.0, 0.0, 1.7400580765850368E9, 0.0, 2025-02-20 13:27:56.585
66.0, 199.3385375882499, 0.5572450933977962, 8.917791444342583, 33.7563370000571, -0.01600000075995922, -0.01600000075995922, 0.9920000471174717, 0.0, 0.0, 0.0, 0.0, 0.0, 1.7400580765857017E9, 0.0, 2025-02-20 13:27:56.585
66.0, 309.44867208367214, 108.33742191642523, 8.510142349172384, -150.09340492170304, -0.01600000075995922, -0.01600000075995922, 0.9920000471174717, 0.0, 0.0, 0.0, 0.0, 0.0, 1.740058076585796E9, 0.0, 2025-02-20 13:27:56.585
67.0, 277.7081411597319, 68.46260858885944, 12.515575201716274, -24.410327010788023, -0.01600000075995922, -0.01600000075995922, 0.9920000471174717, 0.0, 0.0, 0.0, 0.0, 0.0, 1.7400580765864131E9, 0.0, 2025-02-20 13:27:56.586
67.0, 167.96451685996726, -32.06964212004095, 14.426664079073817, 158.93452841695398, -0.01600000075995922, -0.01600000075995922, 0.9920000471174717, 0.0, 0.0, 0.0, 0.0, 0.0, 1.74005807658646E9, 0.0, 2025-02-20 13:27:56.586
68.0, 196.23068072507158, 13.340223141945899, 13.05786069529131, 37.200784859247506, -0.01600000075995922, -0.01600000075995922, 0.9920000471174717, 0.0, 0.0, 0.0, 0.0, 0.0, 1.7400580765874486E9, 0.0, 2025-02-20 13:27:56.587
68.0, 305.54795642988756, 112.37651386857033, 9.568534036632627, -149.4800613289699, -0.01600000075995922, -0.01600000075995922, 0.9920000471174717, 0.0, 0.0, 0.0, 0.0, 0.0, 1.7400580765874848E9, 0.0, 2025-02-20 13:27:56.587
69.0, 275.6212769844569, 64.10188524052501, 14.71463637566194, -24.227071912959218, -0.01600000075995922, -0.01600000075995922, 0.9920000471174717, 0.0, 0.0, 0.0, 0.0, 0.0, 1.7400580766147137E9, 0.0, 2025-02-20 13:27:56.614
69.0, 178.92616363009438, -32.353874516673386, 14.819353574421257, 161.20838759001344, -0.01600000075995922, -0.01600000075995922, 0.9920000471174717, 0.0, 0.0, 0.0, 0.0, 0.0, 1.7400580766149127E9, 0.0, 2025-02-20 13:27:56.614
70.0, 208.98373957397416, 6.410188524052501, 11.610519412439317, 38.416252344846725, -0.01600000075995922, -0.01600000075995922, 1.008000047877431, 0.0, 0.0, 0.0, 0.0, 0.0, 1.7400580766154354E9, 0.0, 2025-02-20 13:27:56.615
70.0, 313.52142313541844, 104.87427455745637, 10.136998829897493, -148.83679853659123, -0.01600000075995922, -0.01600000075995922, 1.008000047877431, 0.0, 0.0, 0.0, 0.0, 0.0, 1.740058076615491E9, 0.0, 2025-02-20 13:27:56.615
71.0, 274.75736009469256, 64.94710263051093, 13.925517485011369, -25.992304692044854, -0.01600000075995922, -0.01600000075995922, 1.008000047877431, 0.0, 0.0, 0.0, 0.0, 0.0, 1.740058076644869E9, 0.0, 2025-02-20 13:27:56.644
71.0, 170.49642912996933, -42.7994150929153, 12.818507098127156, 162.57719097379595, -0.01600000075995922, -0.01600000075995922, 1.008000047877431, 0.0, 0.0, 0.0, 0.0, 0.0, 1.7400580766450148E9, 0.0, 2025-02-20 13:27:56.645
72.0, 211.31743714632466, 12.326710253953934, 14.419184279162437, 38.827641339972615, -0.01600000075995922, -0.01600000075995922, 1.008000047877431, 0.0, 0.0, 0.0, 0.0, 0.0, 1.740058076645187E9, 0.0, 2025-02-20 13:27:56.645
72.0, 311.10544776404276, 111.0151902846992, 8.611119647976011, -147.71856844983995, -0.01600000075995922, -0.01600000075995922, 1.008000047877431, 0.0, 0.0, 0.0, 0.0, 0.0, 1.740058076645222E9, 0.0, 2025-02-20 13:27:56.645
73.0, 272.412442822475, 64.1766832396388, 12.867125797551125, -20.90978065226227, -0.01600000075995922, -0.01600000075995922, 1.008000047877431, 0.0, 0.0, 0.0, 0.0, 0.0, 1.7400580766455595E9, 0.0, 2025-02-20 13:27:56.645
73.0, 169.23982274485752, -43.86528658028692, 10.877499021124095, 159.98918020445853, -0.01600000075995922, -0.01600000075995922, 1.008000047877431, 0.0, 0.0, 0.0, 0.0, 0.0, 1.7400580766456144E9, 0.0, 2025-02-20 13:27:56.645
74.0, 213.99894541455433, 8.302577901631594, 15.047487471718341, 34.54919579066336, -0.01600000075995922, -0.01600000075995922, 1.008000047877431, 0.0, 0.0, 0.0, 0.0, 0.0, 1.7400580766466386E9, 0.0, 2025-02-20 13:27:56.646
74.0, 318.55532847577706, 110.02411679644138, 8.469003449659795, -149.59973812755197, -0.01600000075995922, -0.01600000075995922, 1.008000047877431, 0.0, 0.0, 0.0, 0.0, 0.0, 1.7400580766466813E9, 0.0, 2025-02-20 13:27:56.646
75.0, 286.39592875679955, 50.80654089804739, 13.824540186207741, -13.912427835166454, -0.01600000075995922, -0.01600000075995922, 1.008000047877431, 0.0, 0.0, 0.0, 0.0, 0.0, 1.7400580766749506E9, 0.0, 2025-02-20 13:27:56.674
75.0, 166.5096957772039, -57.5084416186437, 17.235328945796937, 167.7793918121606, -0.01600000075995922, -0.01600000075995922, 1.008000047877431, 0.0, 0.0, 0.0, 0.0, 0.0, 1.7400580766750236E9, 0.0, 2025-02-20 13:27:56.675
76.0, 217.21899927640334, 10.969126570038497, 10.080900330562145, 34.63147358968854, -0.01600000075995922, -0.01600000075995922, 1.008000047877431, 0.0, 0.0, 0.0, 0.0, 0.0, 1.7400580766753445E9, 0.0, 2025-02-20 13:27:56.675
76.0, 317.85596718406305, 110.06151579599828, 10.23423622874543, -149.68949572648853, -0.01600000075995922, -0.01600000075995922, 1.008000047877431, 0.0, 0.0, 0.0, 0.0, 0.0, 1.7400580766755092E9, 0.0, 2025-02-20 13:27:56.675
77.0, 264.74938781326637, 46.498176149092615, 9.87146593304351, -12.199553655460477, -0.01600000075995922, -0.01600000075995922, 1.008000047877431, 0.0, 0.0, 0.0, 0.0, 0.0, 1.7400580767047431E9, 0.0, 2025-02-20 13:27:56.704
77.0, 162.27238912740722, -58.129265011288226, 11.154251617845148, 175.4948054207489, -0.01600000075995922, -0.01600000075995922, 1.008000047877431, 0.0, 0.0, 0.0, 0.0, 0.0, 1.7400580767048097E9, 0.0, 2025-02-20 13:27:56.704
78.0, 213.22478612372652, 9.996752581559122, 7.526548660825938, 39.9832704262808, -0.01600000075995922, -0.01600000075995922, 1.008000047877431, 0.0, 0.0, 0.0, 0.0, 0.0, 1.7400580767050455E9, 0.0, 2025-02-20 13:27:56.705
78.0, 314.56485522305593, 106.64698713645339, 9.220723340753466, -138.9223237540573, -0.01600000075995922, -0.01600000075995922, 1.008000047877431, 0.0, 0.0, 0.0, 0.0, 0.0, 1.7400580767050838E9, 0.0, 2025-02-20 13:27:56.705
79.0, 253.3239934486337, 21.568003044463694, 14.041454383637756, -1.1556290863081813, -0.01600000075995922, -0.01600000075995922, 1.008000047877431, 0.0, 0.0, 0.0, 0.0, 0.0, 1.7400580767056255E9, 0.0, 2025-02-20 13:27:56.705
79.0, 118.60531724477187, -99.87402831669897, 14.505201978143305, 212.254282085225, -0.01600000075995922, -0.01600000075995922, 1.008000047877431, 0.0, 0.0, 0.0, 0.0, 0.0, 1.740058076705767E9, 0.0, 2025-02-20 13:27:56.705
80.0, 89.49019608972594, -112.78416296374053, 8.63355904771015, 198.22591735143214, -0.01600000075995922, -0.01600000075995922, 0.9920000471174717, 0.0, 0.0, 0.0, 0.0, 0.0, 1.7400580767065108E9, 0.0, 2025-02-20 13:27:56.706
80.0, 113.60881090397015, -86.82177747134119, 7.881839156616479, -12.214513255283237, -0.01600000075995922, -0.01600000075995922, 0.9920000471174717, 0.0, 0.0, 0.0, 0.0, 0.0, 1.7400580767065809E9, 0.0, 2025-02-20 13:27:56.706
81.0, 137.06172352610156, -77.0718582868576, 12.208903405349702, -8.654128497466445, -0.01600000075995922, -0.01600000075995922, 0.9920000471174717, 0.0, 0.0, 0.0, 0.0, 0.0, 1.7400580767354865E9, 0.0, 2025-02-20 13:27:56.735
81.0, 121.90764890564606, -97.0466639501974, 14.052674083504826, 133.5069486182183, -0.01600000075995922, -0.01600000075995922, 0.9920000471174717, 0.0, 0.0, 0.0, 0.0, 0.0, 1.7400580767355733E9, 0.0, 2025-02-20 13:27:56.735
82.0, 223.59926860081032, 30.62230083718896, 13.136398594360799, 12.124755656346679, -0.01600000075995922, -0.01600000075995922, 0.9920000471174717, 0.0, 0.0, 0.0, 0.0, 0.0, 1.740058076736109E9, 0.0, 2025-02-20 13:27:56.736
82.0, 313.3980064368807, 115.88454002700746, 9.624632535967976, -158.25012672506273, -0.01600000075995922, -0.01600000075995922, 0.9920000471174717, 0.0, 0.0, 0.0, 0.0, 0.0, 1.7400580767361696E9, 0.0, 2025-02-20 13:27:56.736
83.0, 244.11635975772515, 39.15301263611764, 13.323393592145294, -16.788410901091993, -0.01600000075995922, -0.01600000075995922, 0.9920000471174717, 0.0, 0.0, 0.0, 0.0, 0.0, 1.7400580767365344E9, 0.0, 2025-02-20 13:27:56.736
83.0, 152.17839914700016, -63.017314253374934, 9.130965741816908, 157.8499574298039, -0.01600000075995922, -0.01600000075995922, 0.9920000471174717, 0.0, 0.0, 0.0, 0.0, 0.0, 1.7400580767365987E9, 0.0, 2025-02-20 13:27:56.736
84.0, 226.73330476367846, 24.466425510123372, 8.027695254888386, 21.930773340165615, -0.01600000075995922, -0.01600000075995922, 0.9920000471174717, 0.0, 0.0, 0.0, 0.0, 0.0, 1.7400580767649791E9, 0.0, 2025-02-20 13:27:56.764
84.0, 332.5874331095256, 120.88478626776487, 7.657445159275085, -153.96794127579778, -0.01600000075995922, -0.01600000075995922, 0.9920000471174717, 0.0, 0.0, 0.0, 0.0, 0.0, 1.740058076765061E9, 0.0, 2025-02-20 13:27:56.765
85.0, 250.2909345845692, 39.76261632889509, 13.132658694405109, -25.109688302502036, -0.01600000075995922, -0.01600000075995922, 0.9920000471174717, 0.0, 0.0, 0.0, 0.0, 0.0, 1.740058076765653E9, 0.0, 2025-02-20 13:27:56.765
85.0, 147.36514790402725, -63.761554344557226, 14.587479777168483, 160.50528639834374, -0.01600000075995922, -0.01600000075995922, 0.9920000471174717, 0.0, 0.0, 0.0, 0.0, 0.0, 1.7400580767657037E9, 0.0, 2025-02-20 13:27:56.765
86.0, 230.8359750150703, 34.18642549496144, 6.509295872878283, 22.88070792891085, -0.01600000075995922, -0.01600000075995922, 0.9920000471174717, 0.0, 0.0, 0.0, 0.0, 0.0, 1.740058076794776E9, 0.0, 2025-02-20 13:27:56.794
86.0, 340.30658661806956, 135.60129259340465, 10.29033472808078, -155.26568656042218, -0.01600000075995922, -0.01600000075995922, 0.9920000471174717, 0.0, 0.0, 0.0, 0.0, 0.0, 1.7400580767948532E9, 0.0, 2025-02-20 13:27:56.794
87.0, 265.3739511058666, 39.84489412792027, 14.456583278719336, -17.517691392451525, -0.01600000075995922, -0.01600000075995922, 0.9920000471174717, 0.0, 0.0, 0.0, 0.0, 0.0, 1.740058076795268E9, 0.0, 2025-02-20 13:27:56.795
87.0, 162.17515172855929, -54.942870249040425, 17.646717940922827, 169.64186199009418, -0.01600000075995922, -0.01600000075995922, 0.9920000471174717, 0.0, 0.0, 0.0, 0.0, 0.0, 1.740058076795386E9, 0.0, 2025-02-20 13:27:56.795
88.0, 252.22072296170518, 41.43809150904417, 13.90681798523292, 23.172420125454664, -0.01600000075995922, -0.01600000075995922, 0.9920000471174717, 0.0, 0.0, 0.0, 0.0, 0.0, 1.740058076795941E9, 0.0, 2025-02-20 13:27:56.795
88.0, 350.68106909515336, 137.5049016708508, 11.89101190911606, -159.7797458069399, -0.01600000075995922, -0.01600000075995922, 0.9920000471174717, 0.0, 0.0, 0.0, 0.0, 0.0, 1.7400580767960055E9, 0.0, 2025-02-20 13:27:56.796
89.0, 260.13061136798933, 40.802308516576886, 13.06908039515838, -17.7121661901474, -0.01600000075995922, -0.01600000075995922, 0.9920000471174717, 0.0, 0.0, 0.0, 0.0, 0.0, 1.7400580767967377E9, 0.0, 2025-02-20 13:27:56.796
89.0, 153.33028833335266, -62.91259705461562, 14.72211617557332, 169.2304729949683, -0.01600000075995922, -0.01600000075995922, 0.9920000471174717, 0.0, 0.0, 0.0, 0.0, 0.0, 1.740058076796786E9, 0.0, 2025-02-20 13:27:56.796
90.0, 245.99378953548148, 48.58878022432327, 8.611119647976011, 23.34071562346071, -0.01600000075995922, -0.01600000075995922, 0.9920000471174717, 0.0, 0.0, 0.0, 0.0, 0.0, 1.7400580768248365E9, 0.0, 2025-02-20 13:27:56.824
