%OpenBCI Raw EXG Data
%Number of channels = 4
%Sample Rate = 200 Hz
%Board = OpenBCI_GUI$BoardGanglionNative
Sample Index, EXG Channel 0, EXG Channel 1, EXG Channel 2, EXG Channel 3, Accel Channel 0, Accel Channel 1, Accel Channel 2, Other, Other, Other, Other, Other, Timestamp, Marker Channel, Timestamp (Formatted)
0.0, 82.40495562367141, -156.23432064894587, 12.8577760476619, 38.10210074856877, 0.0, 0.0, 0.0, 0.0, 0.0, 0.0, 0.0, 0.0, 1.740058158695144E9, 0.0, 2025-02-20 13:29:18.695
1.0, 64.93588293064386, -167.22214671876281, 13.067210445180535, 169.97845298610628, 0.0, -0.01600000075995922, 0.0, 0.0, 0.0, 0.0, 0.0, 0.0, 1.740058158695549E9, 0.0, 2025-02-20 13:29:18.695
1.0, -68.06056934362277, -289.95257361466065, 13.568357039242983, -14.854882624000311, 0.0, -0.01600000075995922, 0.0, 0.0, 0.0, 0.0, 0.0, 0.0, 1.7400581586956277E9, 0.0, 2025-02-20 13:29:18.695
2.0, -56.40330118173733, -268.8931969641708, 9.802277783863246, -136.67090398073196, 0.0, -0.01600000075995922, 0.0, 0.0, 0.0, 0.0, 0.0, 0.0, 1.7400581587254264E9, 0.0, 2025-02-20 13:29:18.725
2.0, 76.7016081912443, -156.1071640504524, 15.991812210530043, 49.15724501758814, 0.0, -0.01600000075995922, 0.0, 0.0, 0.0, 0.0, 0.0, 0.0, 1.7400581587257905E9, 0.0, 2025-02-20 13:29:18.725
3.0, 63.90741044282913, -164.9707269454375, 11.23465946689248, 168.61712940223515, 0.0, -0.01600000075995922, 0.0, 0.0, 0.0, 0.0, 0.0, 0.0, 1.7400581587259035E9, 0.0, 2025-02-20 13:29:18.725
3.0, -69.74726422363892, -289.0736971250735, 10.004232381470501, -17.420453993603587, 0.0, -0.01600000075995922, 0.0, 0.0, 0.0, 0.0, 0.0, 0.0, 1.7400581587259605E9, 0.0, 2025-02-20 13:29:18.725
4.0, -49.24513266654685, -273.919622504618, 12.08361675683409, -138.7315888563171, 0.0, -0.01600000075995922, 0.0, 0.0, 0.0, 0.0, 0.0, 0.0, 1.7400581587264209E9, 0.0, 2025-02-20 13:29:18.726
4.0, 74.3679106188938, -157.9995534280315, 12.782978048548102, 43.229503587819636, 0.0, -0.01600000075995922, 0.0, 0.0, 0.0, 0.0, 0.0, 0.0, 1.740058158726686E9, 0.0, 2025-02-20 13:29:18.726
5.0, 61.816806367598474, -161.50009978655726, 15.352289318107069, 169.27161189448088, 0.0, -0.01600000075995922, 0.0, 0.0, 0.0, 0.0, 0.0, 0.0, 1.7400581587272103E9, 0.0, 2025-02-20 13:29:18.727
5.0, -66.44119266280904, -283.628402789589, 13.28786454256624, -11.373035765253007, 0.0, -0.01600000075995922, 0.0, 0.0, 0.0, 0.0, 0.0, 0.0, 1.740058158727419E9, 0.0, 2025-02-20 13:29:18.727
6.0, -46.06995760416612, -282.0090261087753, 12.158414755947888, -139.03452075272799, 0.0, -0.01600000075995922, 0.0, 0.0, 0.0, 0.0, 0.0, 0.0, 1.7400581587550719E9, 0.0, 2025-02-20 13:29:18.755
6.0, 62.81161975581199, -166.05529793258756, 14.701546725817025, 43.48381678480655, 0.0, -0.01600000075995922, 0.0, 0.0, 0.0, 0.0, 0.0, 0.0, 1.7400581587551415E9, 0.0, 2025-02-20 13:29:18.755
7.0, 53.51422846596688, -173.744532241486, 11.006525569595397, 167.97760650981218, 0.0, -0.01600000075995922, 0.0, 0.0, 0.0, 0.0, 0.0, 0.0, 1.7400581587558212E9, 0.0, 2025-02-20 13:29:18.755
7.0, -63.150080701801926, -285.80128466384485, 10.86440937127918, -15.023178122006357, 0.0, -0.01600000075995922, 0.0, 0.0, 0.0, 0.0, 0.0, 0.0, 1.7400581587560313E9, 0.0, 2025-02-20 13:29:18.756
8.0, -62.13656781380996, -274.3010923000984, 12.610942650586367, -143.79167349636555, 0.0, -0.01600000075995922, 0.0, 0.0, 0.0, 0.0, 0.0, 0.0, 1.7400581587850623E9, 0.0, 2025-02-20 13:29:18.785
8.0, 62.00754126533866, -168.87518249917775, 12.195813755504787, 40.97060401458293, 0.0, -0.01600000075995922, 0.0, 0.0, 0.0, 0.0, 0.0, 0.0, 1.7400581587852213E9, 0.0, 2025-02-20 13:29:18.785
9.0, 53.20755666960031, -170.5207384796813, 11.223439767025411, 165.88326253462583, 0.0, -0.01600000075995922, 0.0, 0.0, 0.0, 0.0, 0.0, 0.0, 1.7400581587855043E9, 0.0, 2025-02-20 13:29:18.785
9.0, -58.714559354353696, -270.6322504435666, 8.87852249480784, -19.836429364979267, 0.0, -0.01600000075995922, 0.0, 0.0, 0.0, 0.0, 0.0, 0.0, 1.740058158785597E9, 0.0, 2025-02-20 13:29:18.785
10.0, -56.59403607947752, -276.3599072257057, 13.512258539907634, -141.22610212676227, 0.0, -0.01600000075995922, 0.9920000471174717, 0.0, 0.0, 0.0, 0.0, 0.0, 1.7400581587863755E9, 0.0, 2025-02-20 13:29:18.786
10.0, 61.66721036937088, -173.1031393990852, 14.664147726260126, 47.57526733633131, 0.0, -0.01600000075995922, 0.9920000471174717, 0.0, 0.0, 0.0, 0.0, 0.0, 1.7400581587864332E9, 0.0, 2025-02-20 13:29:18.786
11.0, 58.989442001096904, -165.91318173427135, 16.253605207428336, 174.70194663014263, 0.0, -0.01600000075995922, 0.9920000471174717, 0.0, 0.0, 0.0, 0.0, 0.0, 1.7400581587870955E9, 0.0, 2025-02-20 13:29:18.787
11.0, -57.932920263614506, -271.7803997299634, 9.428287788294256, -15.191473620012403, 0.0, -0.01600000075995922, 0.9920000471174717, 0.0, 0.0, 0.0, 0.0, 0.0, 1.7400581587871923E9, 0.0, 2025-02-20 13:29:18.787
12.0, -55.80865708878264, -285.23468982055783, 9.28991148993373, -140.72121563274413, -0.01600000075995922, -0.01600000075995922, 0.9920000471174717, 0.0, 0.0, 0.0, 0.0, 0.0, 1.7400581588149588E9, 0.0, 2025-02-20 13:29:18.814
12.0, 58.503255006857216, -169.22860304499045, 13.067210445180535, 49.39659861475229, -0.01600000075995922, -0.01600000075995922, 0.9920000471174717, 0.0, 0.0, 0.0, 0.0, 0.0, 1.7400581588150575E9, 0.0, 2025-02-20 13:29:18.815
13.0, 59.211966048460454, -163.76647915970534, 17.472812592983246, 177.35727559868246, -0.01600000075995922, -0.01600000075995922, 0.9920000471174717, 0.0, 0.0, 0.0, 0.0, 0.0, 1.7400581588155525E9, 0.0, 2025-02-20 13:29:18.815
13.0, -47.51542893704027, -263.4366829288192, 8.085663704201579, -12.663301249966025, -0.01600000075995922, -0.01600000075995922, 0.9920000471174717, 0.0, 0.0, 0.0, 0.0, 0.0, 1.7400581588156068E9, 0.0, 2025-02-20 13:29:18.815
14.0, -57.77210456551984, -283.5330353407189, 10.46797997597605, -139.31501324940473, -0.01600000075995922, -0.01600000075995922, 0.9920000471174717, 0.0, 0.0, 0.0, 0.0, 0.0, 1.7400581588454952E9, 0.0, 2025-02-20 13:29:18.845
14.0, 49.02634851913899, -176.57002665800974, 10.426841076463461, 49.90896490868181, -0.01600000075995922, -0.01600000075995922, 0.9920000471174717, 0.0, 0.0, 0.0, 0.0, 0.0, 1.740058158845651E9, 0.0, 2025-02-20 13:29:18.845
15.0, 67.58934194920585, -156.49611364584416, 14.839923024177551, 168.46753340400755, -0.01600000075995922, -0.01600000075995922, 0.9920000471174717, 0.0, 0.0, 0.0, 0.0, 0.0, 1.7400581588459706E9, 0.0, 2025-02-20 13:29:18.845
15.0, -47.39575213845819, -263.89669062336907, 9.24129279050976, -16.586456303484738, -0.01600000075995922, -0.01600000075995922, 0.9920000471174717, 0.0, 0.0, 0.0, 0.0, 0.0, 1.740058158846217E9, 0.0, 2025-02-20 13:29:18.846
16.0, -59.29798374744132, -274.84898764360696, 10.153828379698098, -144.02354729361832, -0.01600000075995922, -0.01600000075995922, 0.9920000471174717, 0.0, 0.0, 0.0, 0.0, 0.0, 1.7400581588463364E9, 0.0, 2025-02-20 13:29:18.846
16.0, 59.47562899533659, -178.27916093776003, 15.853435912169516, 44.63944587111473, -0.01600000075995922, -0.01600000075995922, 0.9920000471174717, 0.0, 0.0, 0.0, 0.0, 0.0, 1.7400581588464587E9, 0.0, 2025-02-20 13:29:18.846
17.0, 60.93979982798919, -157.5171063337475, 11.032704869285226, 166.86311632301658, -0.01600000075995922, -0.01600000075995922, 0.9920000471174717, 0.0, 0.0, 0.0, 0.0, 0.0, 1.7400581588470235E9, 0.0, 2025-02-20 13:29:18.847
17.0, -43.73812998179346, -251.52136166999117, 7.7864717077463865, -22.282323936000466, -0.01600000075995922, -0.01600000075995922, 0.9920000471174717, 0.0, 0.0, 0.0, 0.0, 0.0, 1.7400581588471148E9, 0.0, 2025-02-20 13:29:18.847
18.0, -48.88236237084493, -270.4209460960701, 7.535898410715163, -142.45652921218425, -0.01600000075995922, -0.01600000075995922, 0.9920000471174717, 0.0, 0.0, 0.0, 0.0, 0.0, 1.7400581588752062E9, 0.0, 2025-02-20 13:29:18.875
18.0, 52.130465482361615, -170.2795149325393, 15.954413210973144, 52.66901107598096, -0.01600000075995922, -0.01600000075995922, 0.9920000471174717, 0.0, 0.0, 0.0, 0.0, 0.0, 1.7400581588753457E9, 0.0, 2025-02-20 13:29:18.875
19.0, 59.42140044597909, -157.8200382301584, 15.049357421696186, 166.7097804248333, -0.01600000075995922, -0.01600000075995922, 0.9920000471174717, 0.0, 0.0, 0.0, 0.0, 0.0, 1.7400581588756545E9, 0.0, 2025-02-20 13:29:18.875
19.0, -37.05866866093129, -246.44631743011996, 8.773805296048522, -13.71421313751489, -0.01600000075995922, -0.01600000075995922, 0.9920000471174717, 0.0, 0.0, 0.0, 0.0, 0.0, 1.7400581588757277E9, 0.0, 2025-02-20 13:29:18.875
20.0, -51.949080334510654, -273.8317348556593, 6.3802693244069815, -140.90821063052863, -0.01600000075995922, -0.01600000075995922, 0.5280000250786543, 0.0, 0.0, 0.0, 0.0, 0.0, 1.7400581589051273E9, 0.0, 2025-02-20 13:29:18.905
20.0, 39.44846473261714, -181.26360110240057, 12.940053846687078, 59.15025769919157, -0.01600000075995922, -0.01600000075995922, 0.5280000250786543, 0.0, 0.0, 0.0, 0.0, 0.0, 1.7400581589052339E9, 0.0, 2025-02-20 13:29:18.905
21.0, 53.878868711646646, -159.79096550680697, 13.904948035255075, 170.77505167666823, -0.01600000075995922, -0.01600000075995922, 0.5280000250786543, 0.0, 0.0, 0.0, 0.0, 0.0, 1.7400581589060197E9, 0.0, 2025-02-20 13:29:18.906
21.0, -37.07362826075405, -248.49578260583803, 12.09857635665685, -11.178560967557132, -0.01600000075995922, -0.01600000075995922, 0.5280000250786543, 0.0, 0.0, 0.0, 0.0, 0.0, 1.7400581589061086E9, 0.0, 2025-02-20 13:29:18.906
22.0, -50.87198914727196, -278.25977640319616, 8.41851480025798, -132.0222083358094, 0.0, -0.01600000075995922, 0.5280000250786543, 0.0, 0.0, 0.0, 0.0, 0.0, 1.7400581589065447E9, 0.0, 2025-02-20 13:29:18.906
22.0, 30.745717535726726, -189.99252759898081, 11.028964969329536, 65.56044622324407, 0.0, -0.01600000075995922, 0.5280000250786543, 0.0, 0.0, 0.0, 0.0, 0.0, 1.7400581589066968E9, 0.0, 2025-02-20 13:29:18.906
23.0, 54.57075020344928, -156.78408594243228, 14.810003824532032, 181.6469408478588, 0.0, -0.01600000075995922, 0.5280000250786543, 0.0, 0.0, 0.0, 0.0, 0.0, 1.7400581589070833E9, 0.0, 2025-02-20 13:29:18.907
23.0, -39.52326273173094, -243.5815540640615, 11.114982668310404, -9.353489789180458, 0.0, -0.01600000075995922, 0.5280000250786543, 0.0, 0.0, 0.0, 0.0, 0.0, 1.7400581589072034E9, 0.0, 2025-02-20 13:29:18.907
24.0, -57.78332426538691, -281.12079986929893, 6.174574826844037, -124.88273932039738, 0.0, -0.01600000075995922, 0.5280000250786543, 0.0, 0.0, 0.0, 0.0, 0.0, 1.740058158935206E9, 0.0, 2025-02-20 13:29:18.935
24.0, 20.92474025208503, -206.77719860011712, 12.797937648370862, 82.37877632398158, 0.0, -0.01600000075995922, 0.5280000250786543, 0.0, 0.0, 0.0, 0.0, 0.0, 1.7400581589353254E9, 0.0, 2025-02-20 13:29:18.935
25.0, 33.414136154111475, -183.61412822455168, 15.176514020189643, 188.3525814684108, 0.0, -0.01600000075995922, 0.5280000250786543, 0.0, 0.0, 0.0, 0.0, 0.0, 1.74005815893564E9, 0.0, 2025-02-20 13:29:18.935
25.0, -35.89181987475604, -250.77712157880887, 6.073597528040409, -17.098822597414255, 0.0, -0.01600000075995922, 0.5280000250786543, 0.0, 0.0, 0.0, 0.0, 0.0, 1.7400581589357488E9, 0.0, 2025-02-20 13:29:18.935
26.0, -53.62455551465973, -271.2474639862776, 11.395475164987147, -130.99747574795038, 0.0, -0.01600000075995922, 0.5280000250786543, 0.0, 0.0, 0.0, 0.0, 0.0, 1.740058158965155E9, 0.0, 2025-02-20 13:29:18.965
26.0, 21.107995349913836, -204.27146562980488, 20.15058096125722, 73.09260473400354, 0.0, -0.01600000075995922, 0.5280000250786543, 0.0, 0.0, 0.0, 0.0, 0.0, 1.740058158965265E9, 0.0, 2025-02-20 13:29:18.965
27.0, 50.19880715524778, -168.50493240356445, 16.50791840441525, 187.94867227319628, 0.0, -0.01600000075995922, 0.5280000250786543, 0.0, 0.0, 0.0, 0.0, 0.0, 1.7400581589653509E9, 0.0, 2025-02-20 13:29:18.965
27.0, -30.498884138651192, -236.8385144439526, 13.164447844028473, -21.107995349913836, 0.0, -0.01600000075995922, 0.5280000250786543, 0.0, 0.0, 0.0, 0.0, 0.0, 1.740058158965593E9, 0.0, 2025-02-20 13:29:18.965
28.0, -45.082624015863985, -262.0510499952361, 8.093143504112959, -130.22331645712256, 0.0, -0.01600000075995922, 0.5280000250786543, 0.0, 0.0, 0.0, 0.0, 0.0, 1.7400581589662097E9, 0.0, 2025-02-20 13:29:18.966
28.0, 25.910026893019676, -203.4150285399519, 14.937160423025489, 71.21143505629152, 0.0, -0.01600000075995922, 0.5280000250786543, 0.0, 0.0, 0.0, 0.0, 0.0, 1.7400581589662688E9, 0.0, 2025-02-20 13:29:18.966
29.0, 54.305217306595296, -168.6320890020579, 13.796490936540067, 177.31613669916987, 0.0, -0.01600000075995922, 0.5280000250786543, 0.0, 0.0, 0.0, 0.0, 0.0, 1.7400581589669237E9, 0.0, 2025-02-20 13:29:18.966
29.0, -14.50333202816546, -218.65512085938826, 10.651235073804855, -36.61736046615988, 0.0, -0.01600000075995922, 0.5280000250786543, 0.0, 0.0, 0.0, 0.0, 0.0, 1.7400581589669957E9, 0.0, 2025-02-20 13:29:18.966
30.0, -39.065124987158924, -258.8347360333428, 8.702747196890414, -142.78938030824065, 0.0, -0.01600000075995922, 0.7680000364780426, 0.0, 0.0, 0.0, 0.0, 0.0, 1.7400581589952683E9, 0.0, 2025-02-20 13:29:18.995
30.0, 21.867195040918887, -195.4453017343767, 15.415867617353797, 65.67638312187046, 0.0, -0.01600000075995922, 0.7680000364780426, 0.0, 0.0, 0.0, 0.0, 0.0, 1.740058158995397E9, 0.0, 2025-02-20 13:29:18.995
31.0, 64.70587908336893, -150.6693495148793, 9.473166587762535, 171.24253917112947, 0.0, -0.01600000075995922, 0.7680000364780426, 0.0, 0.0, 0.0, 0.0, 0.0, 1.7400581589957724E9, 0.0, 2025-02-20 13:29:18.995
31.0, -11.373035765253007, -231.96916470164433, 8.986979593522847, -36.88663326296955, 0.0, -0.01600000075995922, 0.7680000364780426, 0.0, 0.0, 0.0, 0.0, 0.0, 1.7400581589958525E9, 0.0, 2025-02-20 13:29:18.995
32.0, -42.04582525184378, -261.7593377986923, 9.69382068514824, -139.86851844284683, 0.0, -0.01600000075995922, 0.7680000364780426, 0.0, 0.0, 0.0, 0.0, 0.0, 1.7400581590251083E9, 0.0, 2025-02-20 13:29:19.025
32.0, 22.46931893378496, -200.83449757052585, 12.289311254397035, 66.86193140782416, 0.0, -0.01600000075995922, 0.7680000364780426, 0.0, 0.0, 0.0, 0.0, 0.0, 1.7400581590253036E9, 0.0, 2025-02-20 13:29:19.025
33.0, 58.60984215559438, -160.5239858981222, 11.747025760821998, 171.96433986257762, 0.0, -0.01600000075995922, 0.7680000364780426, 0.0, 0.0, 0.0, 0.0, 0.0, 1.740058159025428E9, 0.0, 2025-02-20 13:29:19.025
33.0, -2.3897960716858506, -229.07448213594034, 12.85403614770621, -30.54376293811947, 0.0, -0.01600000075995922, 0.7680000364780426, 0.0, 0.0, 0.0, 0.0, 0.0, 1.7400581590255115E9, 0.0, 2025-02-20 13:29:19.025
34.0, -38.96788758831099, -262.6531738881022, 9.203893790952861, -140.94560963008553, 0.0, -0.01600000075995922, 0.7680000364780426, 0.0, 0.0, 0.0, 0.0, 0.0, 1.740058159026398E9, 0.0, 2025-02-20 13:29:19.026
34.0, 27.974451668560505, -203.2990916413255, 15.135375120677054, 69.68181597441435, 0.0, -0.01600000075995922, 0.7680000364780426, 0.0, 0.0, 0.0, 0.0, 0.0, 1.74005815902648E9, 0.0, 2025-02-20 13:29:19.026
35.0, 56.88200837606564, -160.9652940928936, 11.085063468664885, 169.65682158991694, 0.0, -0.01600000075995922, 0.7680000364780426, 0.0, 0.0, 0.0, 0.0, 0.0, 1.7400581590274413E9, 0.0, 2025-02-20 13:29:19.027
35.0, -1.813851478509605, -222.88868760922924, 5.722046932205558, -38.65560594201088, 0.0, -0.01600000075995922, 0.7680000364780426, 0.0, 0.0, 0.0, 0.0, 0.0, 1.7400581590275133E9, 0.0, 2025-02-20 13:29:19.027
36.0, -38.13388989819214, -264.0593762714416, 7.165648315101862, -145.72520177345723, 0.0, -0.01600000075995922, 0.7680000364780426, 0.0, 0.0, 0.0, 0.0, 0.0, 1.7400581590551536E9, 0.0, 2025-02-20 13:29:19.055
36.0, 14.024624833837152, -214.3018773109652, 15.124155420809984, 64.9919814299792, 0.0, -0.01600000075995922, 0.7680000364780426, 0.0, 0.0, 0.0, 0.0, 0.0, 1.7400581590552664E9, 0.0, 2025-02-20 13:29:19.055
37.0, 49.66400146158412, -164.82487084716558, 15.913274311460555, 164.6303960494697, 0.0, -0.01600000075995922, 0.7680000364780426, 0.0, 0.0, 0.0, 0.0, 0.0, 1.7400581590562327E9, 0.0, 2025-02-20 13:29:19.056
37.0, -9.996752581559122, -219.68733324715868, 10.000492481514812, -41.00426311418414, 0.0, -0.01600000075995922, 0.7680000364780426, 0.0, 0.0, 0.0, 0.0, 0.0, 1.740058159056316E9, 0.0, 2025-02-20 13:29:19.056
38.0, -45.76328580779955, -270.9781911894679, 13.186887243762612, -141.6187916221097, 0.0, -0.01600000075995922, 0.7680000364780426, 0.0, 0.0, 0.0, 0.0, 0.0, 1.7400581590850391E9, 0.0, 2025-02-20 13:29:19.085
38.0, 16.84824930038303, -214.5300112082623, 18.000138486735523, 70.45597526524216, 0.0, -0.01600000075995922, 0.7680000364780426, 0.0, 0.0, 0.0, 0.0, 0.0, 1.7400581590851316E9, 0.0, 2025-02-20 13:29:19.085
39.0, 48.80008457181975, -161.5187992863357, 12.08361675683409, 161.35424368828535, 0.0, -0.01600000075995922, 0.7680000364780426, 0.0, 0.0, 0.0, 0.0, 0.0, 1.7400581590853996E9, 0.0, 2025-02-20 13:29:19.085
39.0, -6.365309724584222, -212.94055372709408, 7.457360511645675, -45.06205456610769, 0.0, -0.01600000075995922, 0.7680000364780426, 0.0, 0.0, 0.0, 0.0, 0.0, 1.7400581590854533E9, 0.0, 2025-02-20 13:29:19.085
40.0, -38.45178139442578, -263.2328583812341, 7.090850315988064, -150.71048841439188, 0.0, -0.01600000075995922, 0.8800000417977571, 0.0, 0.0, 0.0, 0.0, 0.0, 1.7400581590862267E9, 0.0, 2025-02-20 13:29:19.086
40.0, 14.858622523956, -211.90834133932367, 15.019438222050667, 66.4767217123881, 0.0, -0.01600000075995922, 0.8800000417977571, 0.0, 0.0, 0.0, 0.0, 0.0, 1.7400581590862715E9, 0.0, 2025-02-20 13:29:19.086
41.0, 55.70767978997901, -166.02537873294204, 13.433720640838146, 155.01511326339096, 0.0, -0.01600000075995922, 0.8800000417977571, 0.0, 0.0, 0.0, 0.0, 0.0, 1.740058159087046E9, 0.0, 2025-02-20 13:29:19.087
41.0, 7.711673708632588, -193.47437445772812, 8.85982299502939, -57.17185062263161, 0.0, -0.01600000075995922, 0.8800000417977571, 0.0, 0.0, 0.0, 0.0, 0.0, 1.740058159087129E9, 0.0, 2025-02-20 13:29:19.087
42.0, -28.627064210828394, -262.7952900864184, 9.25625239033252, -156.9636011403054, 0.0, -0.01600000075995922, 0.8800000417977571, 0.0, 0.0, 0.0, 0.0, 0.0, 1.7400581591151042E9, 0.0, 2025-02-20 13:29:19.115
42.0, 16.683693702332675, -222.11826821835712, 14.667887626215816, 57.82259321492165, 0.0, -0.01600000075995922, 0.8800000417977571, 0.0, 0.0, 0.0, 0.0, 0.0, 1.740058159115652E9, 0.0, 2025-02-20 13:29:19.115
43.0, 69.66498642461374, -159.01306631602347, 14.735205825418234, 134.86453230213374, 0.0, -0.01600000075995922, 0.8800000417977571, 0.0, 0.0, 0.0, 0.0, 0.0, 1.7400581591157322E9, 0.0, 2025-02-20 13:29:19.115
43.0, 19.29040397144854, -196.95622131647542, 7.498499411158264, -96.74373205378652, 0.0, -0.01600000075995922, 0.8800000417977571, 0.0, 0.0, 0.0, 0.0, 0.0, 1.7400581591157916E9, 0.0, 2025-02-20 13:29:19.115
44.0, -25.9567756424658, -253.84944939240813, 8.781285095959902, -179.29828367568552, 0.0, -0.01600000075995922, 0.8800000417977571, 0.0, 0.0, 0.0, 0.0, 0.0, 1.7400581591448731E9, 0.0, 2025-02-20 13:29:19.144
44.0, -0.3814697954803705, -241.77518238546327, 12.812897248193622, 36.17231237143278, 0.0, -0.01600000075995922, 0.8800000417977571, 0.0, 0.0, 0.0, 0.0, 0.0, 1.740058159145044E9, 0.0, 2025-02-20 13:29:19.145
45.0, 71.67705260077491, -142.49392821174115, 12.842816447839141, 135.5863329935819, 0.0, -0.01600000075995922, 0.8800000417977571, 0.0, 0.0, 0.0, 0.0, 0.0, 1.7400581591453164E9, 0.0, 2025-02-20 13:29:19.145
45.0, 25.244324700906873, -162.7286569220014, 9.514305487275124, -67.49771440029144, 0.0, -0.01600000075995922, 0.8800000417977571, 0.0, 0.0, 0.0, 0.0, 0.0, 1.740058159145426E9, 0.0, 2025-02-20 13:29:19.145
46.0, -24.509434359613806, -204.89789887238294, 7.535898410715163, -163.1157365674153, 0.0, -0.01600000075995922, 0.8800000417977571, 0.0, 0.0, 0.0, 0.0, 0.0, 1.740058159145924E9, 0.0, 2025-02-20 13:29:19.145
46.0, 1.2977452846243978, -167.1753979693167, 12.839076547883451, 53.5441476656124, 0.0, -0.01600000075995922, 0.8800000417977571, 0.0, 0.0, 0.0, 0.0, 0.0, 1.740058159145996E9, 0.0, 2025-02-20 13:29:19.145
47.0, 55.70767978997901, -100.307856711559, 15.169034220278263, 143.13345110416412, 0.0, -0.01600000075995922, 0.8800000417977571, 0.0, 0.0, 0.0, 0.0, 0.0, 1.7400581591468344E9, 0.0, 2025-02-20 13:29:19.146
47.0, 18.022577886469662, -141.26537107629701, 13.747872237116098, -62.198276163078845, 0.0, -0.01600000075995922, 0.8800000417977571, 0.0, 0.0, 0.0, 0.0, 0.0, 1.7400581591469238E9, 0.0, 2025-02-20 13:29:19.146
48.0, -27.11988452868536, -206.01238905917853, 9.102916492149234, -149.38656383007765, 0.0, -0.01600000075995922, 0.8800000417977571, 0.0, 0.0, 0.0, 0.0, 0.0, 1.7400581591748824E9, 0.0, 2025-02-20 13:29:19.174
48.0, 3.900715653784573, -179.87609821883962, 16.94174679927528, 74.47636771760881, 0.0, -0.01600000075995922, 0.8800000417977571, 0.0, 0.0, 0.0, 0.0, 0.0, 1.7400581591750393E9, 0.0, 2025-02-20 13:29:19.175
49.0, 57.63372826715931, -119.1307731885463, 13.830150036141276, 155.7069947551936, 0.0, -0.01600000075995922, 0.8800000417977571, 0.0, 0.0, 0.0, 0.0, 0.0, 1.740058159175572E9, 0.0, 2025-02-20 13:29:19.175
49.0, 23.123801426030695, -142.36116176331416, 7.1432089153677225, -63.29406685009599, 0.0, -0.01600000075995922, 0.8800000417977571, 0.0, 0.0, 0.0, 0.0, 0.0, 1.740058159175655E9, 0.0, 2025-02-20 13:29:19.175
50.0, -35.022293135058135, -220.6279180860147, 8.302577901631594, -145.2165753794834, 0.0, -0.01600000075995922, 0.944000044837594, 0.0, 0.0, 0.0, 0.0, 0.0, 1.7400581592049356E9, 0.0, 2025-02-20 13:29:19.204
50.0, 1.1182300867512822, -194.13633674988523, 16.47425930481404, 72.72609453834593, 0.0, -0.01600000075995922, 0.944000044837594, 0.0, 0.0, 0.0, 0.0, 0.0, 1.7400581592052066E9, 0.0, 2025-02-20 13:29:19.205
51.0, 57.36819537030533, -132.437337230891, 13.800230836495757, 158.69517481978983, 0.0, -0.01600000075995922, 0.944000044837594, 0.0, 0.0, 0.0, 0.0, 0.0, 1.7400581592062068E9, 0.0, 2025-02-20 13:29:19.206
51.0, 33.34120810497552, -155.73504400486127, 9.495605987496674, -53.342193068005145, 0.0, -0.01600000075995922, 0.944000044837594, 0.0, 0.0, 0.0, 0.0, 0.0, 1.7400581592063692E9, 0.0, 2025-02-20 13:29:19.206
52.0, -36.634190015960485, -224.91384343523532, 7.535898410715163, -134.46436300687492, 0.0, -0.01600000075995922, 0.944000044837594, 0.0, 0.0, 0.0, 0.0, 0.0, 1.7400581592065616E9, 0.0, 2025-02-20 13:29:19.206
52.0, -6.881415918469429, -214.73570570582524, 10.808310871943831, 80.18345504999161, 0.0, -0.01600000075995922, 0.944000044837594, 0.0, 0.0, 0.0, 0.0, 0.0, 1.7400581592066364E9, 0.0, 2025-02-20 13:29:19.206
53.0, 66.95355895673856, -121.59162735939026, 14.701546725817025, 161.96010748110712, 0.0, -0.01600000075995922, 0.944000044837594, 0.0, 0.0, 0.0, 0.0, 0.0, 1.740058159206808E9, 0.0, 2025-02-20 13:29:19.206
53.0, 31.127187331207097, -137.87328181648627, 9.67512118536979, -52.84478637389839, 0.0, -0.01600000075995922, 0.944000044837594, 0.0, 0.0, 0.0, 0.0, 0.0, 1.7400581592068677E9, 0.0, 2025-02-20 13:29:19.206
54.0, -34.78293953789398, -227.6626699026674, 11.215959967114031, -131.14333184622228, 0.0, -0.01600000075995922, 0.944000044837594, 0.0, 0.0, 0.0, 0.0, 0.0, 1.7400581592353444E9, 0.0, 2025-02-20 13:29:19.235
54.0, -14.290157730691135, -207.09135019639507, 12.405248153023422, 79.1138436626643, 0.0, -0.01600000075995922, 0.944000044837594, 0.0, 0.0, 0.0, 0.0, 0.0, 1.7400581592355816E9, 0.0, 2025-02-20 13:29:19.235
55.0, 66.68802605988458, -136.2856942852959, 17.858022288419306, 151.54448610451072, 0.0, -0.01600000075995922, 0.944000044837594, 0.0, 0.0, 0.0, 0.0, 0.0, 1.7400581592356951E9, 0.0, 2025-02-20 13:29:19.235
55.0, 38.37511344533414, -149.1303806831129, 9.574143886566162, -61.771927568130195, 0.0, -0.01600000075995922, 0.944000044837594, 0.0, 0.0, 0.0, 0.0, 0.0, 1.7400581592357588E9, 0.0, 2025-02-20 13:29:19.235
56.0, -44.300984925124794, -239.38725626375526, 11.743285860866308, -137.15335107501596, 0.0, -0.01600000075995922, 0.944000044837594, 0.0, 0.0, 0.0, 0.0, 0.0, 1.7400581592652543E9, 0.0, 2025-02-20 13:29:19.265
56.0, -18.706979578360915, -218.32226976333186, 14.421054229140282, 82.57325112167746, 0.0, -0.01600000075995922, 0.944000044837594, 0.0, 0.0, 0.0, 0.0, 0.0, 1.7400581592653673E9, 0.0, 2025-02-20 13:29:19.265
57.0, 52.13981523225084, -124.06744113005698, 14.540731027722359, 159.79470540676266, 0.0, -0.01600000075995922, 0.944000044837594, 0.0, 0.0, 0.0, 0.0, 0.0, 1.740058159265547E9, 0.0, 2025-02-20 13:29:19.265
57.0, 36.826794863678515, -140.87642148090526, 10.310904177837074, -62.538607059046626, 0.0, -0.01600000075995922, 0.944000044837594, 0.0, 0.0, 0.0, 0.0, 0.0, 1.740058159265614E9, 0.0, 2025-02-20 13:29:19.265
58.0, -28.301692914683372, -235.5613386090845, 12.794197748415172, -144.6967292856425, 0.0, -0.01600000075995922, 0.944000044837594, 0.0, 0.0, 0.0, 0.0, 0.0, 1.7400581592660663E9, 0.0, 2025-02-20 13:29:19.266
58.0, -20.87238165270537, -231.165086211171, 14.802524024620652, 69.82767207268625, 0.0, -0.01600000075995922, 0.944000044837594, 0.0, 0.0, 0.0, 0.0, 0.0, 1.740058159266165E9, 0.0, 2025-02-20 13:29:19.266
59.0, 56.754851777572185, -138.56703325826675, 11.601169662550092, 143.2119890032336, 0.0, -0.01600000075995922, 0.944000044837594, 0.0, 0.0, 0.0, 0.0, 0.0, 1.740058159266814E9, 0.0, 2025-02-20 13:29:19.266
59.0, 37.45135815627873, -144.10395514266565, 10.258545578457415, -64.22530193906277, 0.0, -0.01600000075995922, 0.944000044837594, 0.0, 0.0, 0.0, 0.0, 0.0, 1.740058159266894E9, 0.0, 2025-02-20 13:29:19.266
60.0, -40.673281968105584, -234.23367412481457, 9.28243169002235, -141.2522814264521, 0.0, -0.01600000075995922, 0.9760000463575125, 0.0, 0.0, 0.0, 0.0, 0.0, 1.7400581592950397E9, 0.0, 2025-02-20 13:29:19.295
60.0, -21.145394349470735, -220.84670223342255, 13.803970736451447, 73.91912262421101, 0.0, -0.01600000075995922, 0.9760000463575125, 0.0, 0.0, 0.0, 0.0, 0.0, 1.7400581592951555E9, 0.0, 2025-02-20 13:29:19.295
61.0, 57.75340506574139, -128.29352807998657, 14.020884933881462, 139.49078854732215, 0.0, -0.01600000075995922, 0.9760000463575125, 0.0, 0.0, 0.0, 0.0, 0.0, 1.7400581592958457E9, 0.0, 2025-02-20 13:29:19.295
61.0, 44.36269327439368, -135.6704807425849, 15.980592510662973, -75.1832088092342, 0.0, -0.01600000075995922, 0.9760000463575125, 0.0, 0.0, 0.0, 0.0, 0.0, 1.7400581592959287E9, 0.0, 2025-02-20 13:29:19.295
62.0, -20.533920706715435, -234.71238131914288, 11.26831856649369, -141.08024602849036, 0.0, -0.01600000075995922, 0.9760000463575125, 0.0, 0.0, 0.0, 0.0, 0.0, 1.740058159324928E9, 0.0, 2025-02-20 13:29:19.324
62.0, -25.92685644282028, -230.8322351151146, 14.86236242391169, 72.06787214614451, 0.0, -0.01600000075995922, 0.9760000463575125, 0.0, 0.0, 0.0, 0.0, 0.0, 1.740058159325147E9, 0.0, 2025-02-20 13:29:19.325
63.0, 63.039753653109074, -134.34468620829284, 9.192674091085792, 134.44566350709647, 0.0, -0.01600000075995922, 0.9760000463575125, 0.0, 0.0, 0.0, 0.0, 0.0, 1.7400581593260977E9, 0.0, 2025-02-20 13:29:19.326
63.0, 54.9709194987081, -130.58608675282449, 8.500792599283159, -68.83285868447274, 0.0, -0.01600000075995922, 0.9760000463575125, 0.0, 0.0, 0.0, 0.0, 0.0, 1.7400581593261707E9, 0.0, 2025-02-20 13:29:19.326
64.0, -34.48935739137232, -231.3558211089112, 7.352643312886357, -140.38836453668773, 0.0, -0.01600000075995922, 0.9760000463575125, 0.0, 0.0, 0.0, 0.0, 0.0, 1.7400581593263268E9, 0.0, 2025-02-20 13:29:19.326
64.0, -32.49412076501176, -234.76660986850038, 13.24672564305365, 74.94759511202574, 0.0, -0.01600000075995922, 0.9760000463575125, 0.0, 0.0, 0.0, 0.0, 0.0, 1.740058159326378E9, 0.0, 2025-02-20 13:29:19.326
65.0, 61.67095026932657, -136.70830298028886, 14.002185434103012, 139.7712810439989, 0.0, -0.01600000075995922, 0.9760000463575125, 0.0, 0.0, 0.0, 0.0, 0.0, 1.740058159326785E9, 0.0, 2025-02-20 13:29:19.326
65.0, 61.794366967864335, -136.35301248449832, 12.236952655017376, -79.1475027622655, 0.0, -0.01600000075995922, 0.9760000463575125, 0.0, 0.0, 0.0, 0.0, 0.0, 1.740058159326828E9, 0.0, 2025-02-20 13:29:19.326
66.0, -36.15174292167649, -241.22167719202116, 11.133682168088853, -138.29402056150138, 0.0, -0.01600000075995922, 0.9760000463575125, 0.0, 0.0, 0.0, 0.0, 0.0, 1.7400581593555028E9, 0.0, 2025-02-20 13:29:19.355
66.0, -35.40937278047204, -247.5458480170928, 18.53120428044349, 75.83021150156856, 0.0, -0.01600000075995922, 0.9760000463575125, 0.0, 0.0, 0.0, 0.0, 0.0, 1.74005815935562E9, 0.0, 2025-02-20 13:29:19.355
67.0, 54.85124270012602, -139.2925738496706, 13.497298940084875, 142.23213521484286, 0.0, -0.01600000075995922, 0.9760000463575125, 0.0, 0.0, 0.0, 0.0, 0.0, 1.740058159355714E9, 0.0, 2025-02-20 13:29:19.355
67.0, 51.06459399498999, -133.2900344207883, 10.703593673184514, -76.16680249758065, 0.0, -0.01600000075995922, 0.9760000463575125, 0.0, 0.0, 0.0, 0.0, 0.0, 1.7400581593558557E9, 0.0, 2025-02-20 13:29:19.355
68.0, -45.30327811324969, -239.82669450854883, 10.707333573140204, -137.62831836938858, 0.0, -0.01600000075995922, 0.9760000463575125, 0.0, 0.0, 0.0, 0.0, 0.0, 1.7400581593852296E9, 0.0, 2025-02-20 13:29:19.385
68.0, -42.455344296991825, -247.67674451554194, 13.100869544781744, 80.35175054799765, 0.0, -0.01600000075995922, 0.9760000463575125, 0.0, 0.0, 0.0, 0.0, 0.0, 1.7400581593853388E9, 0.0, 2025-02-20 13:29:19.385
69.0, 59.174567048903555, -136.7718812795356, 14.90724122337997, 132.063347235322, 0.0, -0.01600000075995922, 0.9760000463575125, 0.0, 0.0, 0.0, 0.0, 0.0, 1.7400581593855245E9, 0.0, 2025-02-20 13:29:19.385
69.0, 64.19351278943941, -127.88213908486068, 13.886248535476625, -74.96629461180419, 0.0, -0.01600000075995922, 0.9760000463575125, 0.0, 0.0, 0.0, 0.0, 0.0, 1.7400581593855815E9, 0.0, 2025-02-20 13:29:19.385
70.0, -36.90159286279231, -235.81004195613787, 11.23839936684817, -135.38437839597464, 0.0, -0.01600000075995922, 0.9920000471174717, 0.0, 0.0, 0.0, 0.0, 0.0, 1.7400581593860285E9, 0.0, 2025-02-20 13:29:19.386
70.0, -43.50625618454069, -263.5451400275342, 11.25335896667093, 82.04218532796949, 0.0, -0.01600000075995922, 0.9920000471174717, 0.0, 0.0, 0.0, 0.0, 0.0, 1.740058159386089E9, 0.0, 2025-02-20 13:29:19.386
71.0, 61.48956512147561, -142.5126277115196, 14.245278931222856, 138.89240455441177, 0.0, 0.0, 0.9920000471174717, 0.0, 0.0, 0.0, 0.0, 0.0, 1.7400581593868544E9, 0.0, 2025-02-20 13:29:19.386
71.0, 67.46592525066808, -133.37231221981347, 11.560030763037503, -73.9602615237236, 0.0, 0.0, 0.9920000471174717, 0.0, 0.0, 0.0, 0.0, 0.0, 1.7400581593869755E9, 0.0, 2025-02-20 13:29:19.386
72.0, -40.903285815380514, -236.9843705422245, 10.714813373051584, -131.44252384267747, 0.0, 0.0, 0.9920000471174717, 0.0, 0.0, 0.0, 0.0, 0.0, 1.7400581594149008E9, 0.0, 2025-02-20 13:29:19.414
72.0, -41.87939970381558, -247.14567872183397, 15.827256612479687, 86.522585474886, 0.0, 0.0, 0.9920000471174717, 0.0, 0.0, 0.0, 0.0, 0.0, 1.7400581594151437E9, 0.0, 2025-02-20 13:29:19.415
73.0, 56.13028848497197, -142.1835165154189, 14.391135029494762, 141.92920331843197, 0.0, 0.0, 0.9920000471174717, 0.0, 0.0, 0.0, 0.0, 0.0, 1.7400581594156027E9, 0.0, 2025-02-20 13:29:19.415
73.0, 65.71191217144951, -112.45131186768413, 14.09568293299526, -75.1121507100761, 0.0, 0.0, 0.9920000471174717, 0.0, 0.0, 0.0, 0.0, 0.0, 1.7400581594156833E9, 0.0, 2025-02-20 13:29:19.415
74.0, -40.14408612437546, -245.73573643853888, 7.24418621417135, -136.51756808254868, 0.0, 0.0, 0.9920000471174717, 0.0, 0.0, 0.0, 0.0, 0.0, 1.7400581594449496E9, 0.0, 2025-02-20 13:29:19.444
74.0, -54.497822154313326, -269.65239665517583, 18.000138486735523, 85.69606758467853, 0.0, 0.0, 0.9920000471174717, 0.0, 0.0, 0.0, 0.0, 0.0, 1.740058159445125E9, 0.0, 2025-02-20 13:29:19.445
75.0, 62.0842092144303, -146.67887626215816, 14.735205825418234, 139.15793745126575, 0.0, 0.0, 0.9920000471174717, 0.0, 0.0, 0.0, 0.0, 0.0, 1.7400581594453092E9, 0.0, 2025-02-20 13:29:19.445
75.0, 80.2788224988617, -124.10110022965819, 7.390042312443256, -79.48783365823328, 0.0, 0.0, 0.9920000471174717, 0.0, 0.0, 0.0, 0.0, 0.0, 1.7400581594453979E9, 0.0, 2025-02-20 13:29:19.445
76.0, -35.36823388095945, -251.56998036941513, 11.69466716144234, -131.90253153722733, 0.0, 0.0, 0.9920000471174717, 0.0, 0.0, 0.0, 0.0, 0.0, 1.7400581594459717E9, 0.0, 2025-02-20 13:29:19.445
76.0, -44.53098877239972, -270.2133816485293, 15.591642915271223, 84.65637539699674, 0.0, 0.0, 0.9920000471174717, 0.0, 0.0, 0.0, 0.0, 0.0, 1.740058159446036E9, 0.0, 2025-02-20 13:29:19.446
77.0, 65.35288177570328, -137.56847997009754, 11.485232763923705, 131.37520564347506, 0.0, 0.0, 0.9920000471174717, 0.0, 0.0, 0.0, 0.0, 0.0, 1.7400581594470255E9, 0.0, 2025-02-20 13:29:19.447
77.0, 82.07023457763717, -118.25563659891486, 11.713366661220789, -80.47890714649111, 0.0, 0.0, 0.9920000471174717, 0.0, 0.0, 0.0, 0.0, 0.0, 1.7400581594470994E9, 0.0, 2025-02-20 13:29:19.447
78.0, -41.76720270514488, -249.026848399546, 12.786717948503792, -128.90687167271972, 0.0, 0.0, 0.9920000471174717, 0.0, 0.0, 0.0, 0.0, 0.0, 1.740058159474926E9, 0.0, 2025-02-20 13:29:19.474
78.0, -62.81909955572337, -271.27177333598956, 16.197506708092988, 87.02373206894845, 0.0, 0.0, 0.9920000471174717, 0.0, 0.0, 0.0, 0.0, 0.0, 1.7400581594750063E9, 0.0, 2025-02-20 13:29:19.475
79.0, 62.11412841407582, -145.04080008156598, 12.319230454042554, 134.2137897098437, 0.0, 0.0, 0.9920000471174717, 0.0, 0.0, 0.0, 0.0, 0.0, 1.7400581594756815E9, 0.0, 2025-02-20 13:29:19.475
79.0, 79.70287790568545, -113.87995365075767, 10.228626378811896, -80.01141965202987, 0.0, 0.0, 0.9920000471174717, 0.0, 0.0, 0.0, 0.0, 0.0, 1.7400581594757507E9, 0.0, 2025-02-20 13:29:19.475
80.0, -35.08026158437133, -246.88388572493568, 6.406448624096811, -130.8740590494126, 0.0, 0.0, 0.9920000471174717, 0.0, 0.0, 0.0, 0.0, 0.0, 1.7400581595049703E9, 0.0, 2025-02-20 13:29:19.504
80.0, -55.98256243672222, -275.90550938108936, 13.456160040572286, 89.10685634426773, 0.0, 0.0, 0.9920000471174717, 0.0, 0.0, 0.0, 0.0, 0.0, 1.7400581595050776E9, 0.0, 2025-02-20 13:29:19.505
81.0, 60.393774434458464, -140.26120793819427, 13.119569044560194, 130.12981895823032, 0.0, -0.01600000075995922, 0.9920000471174717, 0.0, 0.0, 0.0, 0.0, 0.0, 1.7400581595055048E9, 0.0, 2025-02-20 13:29:19.505
81.0, 80.75004989327863, -120.92592516727746, 14.92220082320273, -83.10805681534111, 0.0, -0.01600000075995922, 0.9920000471174717, 0.0, 0.0, 0.0, 0.0, 0.0, 1.740058159505591E9, 0.0, 2025-02-20 13:29:19.505
82.0, -36.471504367887974, -247.9834163119085, 12.162154655903578, -132.6879105279222, -0.01600000075995922, -0.01600000075995922, 0.9920000471174717, 0.0, 0.0, 0.0, 0.0, 0.0, 1.7400581595063856E9, 0.0, 2025-02-20 13:29:19.506
82.0, -62.949996054172516, -281.06657131994143, 16.399461305700243, 90.66265472583473, -0.01600000075995922, -0.01600000075995922, 0.9920000471174717, 0.0, 0.0, 0.0, 0.0, 0.0, 1.740058159506618E9, 0.0, 2025-02-20 13:29:19.506
83.0, 63.161300401668996, -137.12343187537044, 9.132835691794753, 130.96381664834917, -0.01600000075995922, -0.01600000075995922, 0.9920000471174717, 0.0, 0.0, 0.0, 0.0, 0.0, 1.7400581595069933E9, 0.0, 2025-02-20 13:29:19.506
83.0, 100.30972666153684, -104.88175435736775, 10.49415927566588, -83.9682338051498, -0.01600000075995922, -0.01600000075995922, 0.9920000471174717, 0.0, 0.0, 0.0, 0.0, 0.0, 1.7400581595070791E9, 0.0, 2025-02-20 13:29:19.507
84.0, -37.387779857032, -248.8024544022046, 14.428534029051661, -133.52190821804106, -0.01600000075995922, -0.01600000075995922, 0.9920000471174717, 0.0, 0.0, 0.0, 0.0, 0.0, 1.7400581595348928E9, 0.0, 2025-02-20 13:29:19.534
84.0, -75.00743351131678, -288.6436086301692, 12.87273564748466, 86.01769898086786, -0.01600000075995922, -0.01600000075995922, 0.9920000471174717, 0.0, 0.0, 0.0, 0.0, 0.0, 1.740058159534958E9, 0.0, 2025-02-20 13:29:19.534
85.0, 65.83158897003159, -133.74256231542677, 14.249018831178546, 126.59187360014766, -0.01600000075995922, -0.01600000075995922, 0.9920000471174717, 0.0, 0.0, 0.0, 0.0, 0.0, 1.7400581595355933E9, 0.0, 2025-02-20 13:29:19.535
85.0, 99.96565586561337, -100.0872026141733, 10.292204678058624, -90.4868794279173, -0.01600000075995922, -0.01600000075995922, 0.9920000471174717, 0.0, 0.0, 0.0, 0.0, 0.0, 1.7400581595356927E9, 0.0, 2025-02-20 13:29:19.535
86.0, -40.794828716665506, -252.71064985590056, 11.63856866210699, -126.93220449611545, -0.01600000075995922, -0.01600000075995922, 0.9920000471174717, 0.0, 0.0, 0.0, 0.0, 0.0, 1.740058159565424E9, 0.0, 2025-02-20 13:29:19.565
86.0, -75.22808760870248, -284.858829875011, 15.935713711194694, 83.97571360506117, -0.01600000075995922, -0.01600000075995922, 0.9920000471174717, 0.0, 0.0, 0.0, 0.0, 0.0, 1.7400581595656035E9, 0.0, 2025-02-20 13:29:19.565
87.0, 64.74327808292583, -131.47992284223437, 9.64894188567996, 120.54819527175277, -0.01600000075995922, -0.01600000075995922, 0.9920000471174717, 0.0, 0.0, 0.0, 0.0, 0.0, 1.7400581595659325E9, 0.0, 2025-02-20 13:29:19.565
87.0, 96.48380900686607, -96.39966125786304, 7.4648403115570545, -89.05823764484376, -0.01600000075995922, -0.01600000075995922, 0.9920000471174717, 0.0, 0.0, 0.0, 0.0, 0.0, 1.7400581595662796E9, 0.0, 2025-02-20 13:29:19.566
88.0, -35.76092337630689, -245.33556714328006, 13.631935338489711, -132.66921102814376, -0.01600000075995922, -0.01600000075995922, 0.9920000471174717, 0.0, 0.0, 0.0, 0.0, 0.0, 1.7400581595663686E9, 0.0, 2025-02-20 13:29:19.566
88.0, -83.61294330935925, -300.4916116897948, 11.182300867512822, 82.00478632841259, -0.01600000075995922, -0.01600000075995922, 0.9920000471174717, 0.0, 0.0, 0.0, 0.0, 0.0, 1.740058159566694E9, 0.0, 2025-02-20 13:29:19.566
89.0, 60.53589063277468, -135.65739109274, 13.964786434546113, 120.12558657675982, -0.01600000075995922, -0.01600000075995922, 0.9920000471174717, 0.0, 0.0, 0.0, 0.0, 0.0, 1.7400581595669758E9, 0.0, 2025-02-20 13:29:19.566
89.0, 108.99003445869312, -95.96209296304733, 10.120169280096889, -92.87293559964746, -0.01600000075995922, -0.01600000075995922, 0.9920000471174717, 0.0, 0.0, 0.0, 0.0, 0.0, 1.7400581595670547E9, 0.0, 2025-02-20 13:29:19.567
90.0, -39.42976523283869, -255.59785262169316, 12.150934956036508, -131.26300864480436, -0.01600000075995922, -0.01600000075995922, 0.9920000471174717, 0.0, 0.0, 0.0, 0.0, 0.0, 1.7400581595953798E9, 0.0, 2025-02-20 13:29:19.595
90.0, -90.3746824292466, -300.9740587840788, 15.2662716191262, 91.12266242038459, -0.01600000075995922, -0.01600000075995922, 0.9920000471174717, 0.0, 0.0, 0.0, 0.0, 0.0, 1.7400581595954943E9, 0.0, 2025-02-20 13:29:19.595
91.0, 62.26372441230342, -142.93523640651256, 9.435767588205636, 127.30245459172875, -0.01600000075995922, -0.01600000075995922, 0.9920000471174717, 0.0, 0.0, 0.0, 0.0, 0.0, 1.740058159595838E9, 0.0, 2025-02-20 13:29:19.595
91.0, 108.39913026569411, -92.43162740487605, 8.627949197776616, -85.67362818494439, -0.01600000075995922, -0.01600000075995922, 0.9920000471174717, 0.0, 0.0, 0.0, 0.0, 0.0, 1.7400581595959322E9, 0.0, 2025-02-20 13:29:19.595
92.0, -46.056867954321206, -257.2247091024183, 11.182300867512822, -121.48317026067525, -0.01600000075995922, -0.01600000075995922, 0.9920000471174717, 0.0, 0.0, 0.0, 0.0, 0.0, 1.7400581596257386E9, 0.0, 2025-02-20 13:29:19.625
92.0, -79.30457856040448, -306.81204261491075, 14.959599822759628, 97.72358584217727, -0.01600000075995922, -0.01600000075995922, 0.9920000471174717, 0.0, 0.0, 0.0, 0.0, 0.0, 1.7400581596258836E9, 0.0, 2025-02-20 13:29:19.625
93.0, 69.18253933032975, -132.72156962752342, 8.998199293389916, 123.91410523187369, -0.01600000075995922, -0.01600000075995922, 0.9920000471174717, 0.0, 0.0, 0.0, 0.0, 0.0, 1.740058159626052E9, 0.0, 2025-02-20 13:29:19.626
93.0, 119.26353963697329, -92.69716030173004, 4.615036545321345, -91.94544041063637, -0.01600000075995922, -0.01600000075995922, 0.9920000471174717, 0.0, 0.0, 0.0, 0.0, 0.0, 1.740058159626151E9, 0.0, 2025-02-20 13:29:19.626
94.0, -37.76550975255668, -264.9625621107407, 9.465686787851155, -122.59392054751515, -0.01600000075995922, -0.01600000075995922, 0.9920000471174717, 0.0, 0.0, 0.0, 0.0, 0.0, 1.740058159626278E9, 0.0, 2025-02-20 13:29:19.626
94.0, -85.16874169092625, -305.1178679349832, 14.379915329627693, 98.98393212724477, -0.01600000075995922, -0.01600000075995922, 0.9920000471174717, 0.0, 0.0, 0.0, 0.0, 0.0, 1.740058159626397E9, 0.0, 2025-02-20 13:29:19.626
95.0, 79.36254700971767, -143.20450920332223, 8.930881094187498, 125.90373200830072, -0.01600000075995922, -0.01600000075995922, 0.9920000471174717, 0.0, 0.0, 0.0, 0.0, 0.0, 1.740058159627058E9, 0.0, 2025-02-20 13:29:19.627
95.0, 118.1864484497346, -89.8211772358045, 6.85149671882391, -91.37323571741581, -0.01600000075995922, -0.01600000075995922, 0.9920000471174717, 0.0, 0.0, 0.0, 0.0, 0.0, 1.740058159627241E9, 0.0, 2025-02-20 13:29:19.627
96.0, -50.488649401813745, -263.2609076309018, 7.0609311163425446, -122.60888014733791, -0.01600000075995922, -0.01600000075995922, 0.9920000471174717, 0.0, 0.0, 0.0, 0.0, 0.0, 1.7400581596552496E9, 0.0, 2025-02-20 13:29:19.655
96.0, -97.29349734727293, -321.89879903616384, 16.818330100737512, 98.81189672928303, -0.01600000075995922, -0.01600000075995922, 0.9920000471174717, 0.0, 0.0, 0.0, 0.0, 0.0, 1.7400581596554008E9, 0.0, 2025-02-20 13:29:19.655
97.0, 64.35058858757839, -143.27182740252465, 10.509118875488639, 131.0610540471971, -0.01600000075995922, -0.01600000075995922, 0.9920000471174717, 0.0, 0.0, 0.0, 0.0, 0.0, 1.7400581596557605E9, 0.0, 2025-02-20 13:29:19.655
97.0, 107.53521337592974, -96.03315106220543, 12.734359349124134, -87.58097716234624, -0.01600000075995922, -0.01600000075995922, 0.9920000471174717, 0.0, 0.0, 0.0, 0.0, 0.0, 1.7400581596558623E9, 0.0, 2025-02-20 13:29:19.655
98.0, -47.17883794102818, -266.4697417928837, 10.699853773228824, -109.69500560034066, -0.01600000075995922, -0.01600000075995922, 0.9920000471174717, 0.0, 0.0, 0.0, 0.0, 0.0, 1.7400581596853025E9, 0.0, 2025-02-20 13:29:19.685
98.0, -102.77619068231434, -322.2503496319987, 12.397768353112042, 106.91252003330737, -0.01600000075995922, -0.01600000075995922, 0.9920000471174717, 0.0, 0.0, 0.0, 0.0, 0.0, 1.740058159685429E9, 0.0, 2025-02-20 13:29:19.685
99.0, 68.33732194034383, -136.49886858277023, 4.959107341244817, 132.27278163284063, -0.01600000075995922, -0.01600000075995922, 0.9920000471174717, 0.0, 0.0, 0.0, 0.0, 0.0, 1.7400581596856425E9, 0.0, 2025-02-20 13:29:19.685
99.0, 122.02358580427244, -77.56178518105298, 9.966833381913602, -89.23775284271687, -0.01600000075995922, -0.01600000075995922, 0.9920000471174717, 0.0, 0.0, 0.0, 0.0, 0.0, 1.7400581596857927E9, 0.0, 2025-02-20 13:29:19.685
100.0, -44.078460877761245, -258.2569214901887, 8.665348197333515, -111.0151902846992, -0.01600000075995922, -0.01600000075995922, 1.008000047877431, 0.0, 0.0, 0.0, 0.0, 0.0, 1.7400581596862547E9, 0.0, 2025-02-20 13:29:19.686
100.0, -106.92747963313013, -322.029695534613, 15.060577121563256, 110.0128970965743, -0.01600000075995922, -0.01600000075995922, 1.008000047877431, 0.0, 0.0, 0.0, 0.0, 0.0, 1.7400581596863604E9, 0.0, 2025-02-20 13:29:19.686
0.0, -421.673720004037, -621.3189293886535, 12.874605597462505, 133.6939436160028, -0.01600000075995922, -0.01600000075995922, 1.008000047877431, 0.0, 0.0, 0.0, 0.0, 0.0, 1.7400581596873908E9, 0.0, 2025-02-20 13:29:19.687
1.0, -362.0971137098968, -571.7764746756293, 12.029388207476586, -83.62416300922632, -0.01600000075995922, -0.01600000075995922, 1.008000047877431, 0.0, 0.0, 0.0, 0.0, 0.0, 1.740058159715247E9, 0.0, 2025-02-20 13:29:19.715
1.0, -534.7589449142106, -759.4764436017722, 11.760115410666913, -113.22547115851194, -0.01600000075995922, -0.01600000075995922, 1.008000047877431, 0.0, 0.0, 0.0, 0.0, 0.0, 1.740058159715406E9, 0.0, 2025-02-20 13:29:19.715
2.0, -599.253519650083, -815.3991676392034, 13.327133492100984, 106.8302422342822, -0.01600000075995922, -0.01600000075995922, 1.008000047877431, 0.0, 0.0, 0.0, 0.0, 0.0, 1.7400581597157738E9, 0.0, 2025-02-20 13:29:19.715
2.0, -426.6814460447058, -625.0214303447865, 11.513282013591379, 124.40777202602476, -0.01600000075995922, -0.01600000075995922, 1.008000047877431, 0.0, 0.0, 0.0, 0.0, 0.0, 1.7400581597158916E9, 0.0, 2025-02-20 13:29:19.715
3.0, -368.44746383465827, -574.5589602426626, 9.362839539069682, -93.04123109765351, -0.01600000075995922, -0.01600000075995922, 1.008000047877431, 0.0, 0.0, 0.0, 0.0, 0.0, 1.7400581597163427E9, 0.0, 2025-02-20 13:29:19.716
3.0, -530.4767594649456, -741.857774910517, 7.922978056129068, -117.58619450684637, -0.01600000075995922, -0.01600000075995922, 1.008000047877431, 0.0, 0.0, 0.0, 0.0, 0.0, 1.7400581597164273E9, 0.0, 2025-02-20 13:29:19.716
4.0, -591.5455858414061, -806.4121880456805, 15.391558267641813, 92.71585980150849, -0.01600000075995922, -0.01600000075995922, 1.008000047877431, 0.0, 0.0, 0.0, 0.0, 0.0, 1.7400581597451189E9, 0.0, 2025-02-20 13:29:19.745
4.0, -412.20803321618587, -618.768317618873, 16.169457458425313, 110.3120890930295, -0.01600000075995922, -0.01600000075995922, 1.008000047877431, 0.0, 0.0, 0.0, 0.0, 0.0, 1.74005815974521E9, 0.0, 2025-02-20 13:29:19.745
5.0, -355.1670790920034, -564.7080637593754, 6.64393227128312, -107.30520952865481, -0.01600000075995922, -0.01600000075995922, 1.008000047877431, 0.0, 0.0, 0.0, 0.0, 0.0, 1.7400581597453697E9, 0.0, 2025-02-20 13:29:19.745
5.0, -537.6087486804463, -749.143100024201, 4.960977291222662, -126.55821450054646, -0.01600000075995922, -0.01600000075995922, 1.008000047877431, 0.0, 0.0, 0.0, 0.0, 0.0, 1.7400581597454374E9, 0.0, 2025-02-20 13:29:19.745
6.0, -599.3133580493741, -816.1882865298539, 14.31072718044743, 92.91781439911574, -0.01600000075995922, -0.01600000075995922, 1.008000047877431, 0.0, 0.0, 0.0, 0.0, 0.0, 1.7400581597472925E9, 0.0, 2025-02-20 13:29:19.747
6.0, -414.9830389833078, -622.8373287706636, 8.708357046823949, 109.48183130286634, -0.01600000075995922, -0.01600000075995922, 1.008000047877431, 0.0, 0.0, 0.0, 0.0, 0.0, 1.740058159747396E9, 0.0, 2025-02-20 13:29:19.747
7.0, -347.6872791806236, -557.6246932432987, 9.261862240266055, -108.85726801026613, -0.01600000075995922, -0.01600000075995922, 1.008000047877431, 0.0, 0.0, 0.0, 0.0, 0.0, 1.7400581597751503E9, 0.0, 2025-02-20 13:29:19.775
7.0, -531.4528733533807, -750.6128807067871, 14.69593687588349, -123.21100404020399, -0.01600000075995922, -0.01600000075995922, 1.008000047877431, 0.0, 0.0, 0.0, 0.0, 0.0, 1.7400581597752116E9, 0.0, 2025-02-20 13:29:19.775
8.0, -604.8147508841939, -833.1786520285532, 13.46550979046151, 91.81080401223153, -0.01600000075995922, -0.01600000075995922, 1.008000047877431, 0.0, 0.0, 0.0, 0.0, 0.0, 1.7400581597753513E9, 0.0, 2025-02-20 13:29:19.775
8.0, -424.7965364670381, -635.822261416819, 12.956883396487683, 127.54554808884859, -0.01600000075995922, -0.01600000075995922, 1.008000047877431, 0.0, 0.0, 0.0, 0.0, 0.0, 1.7400581597754855E9, 0.0, 2025-02-20 13:29:19.775
9.0, -390.7858862699941, -603.9770132941194, 10.518468625377864, -51.707856787368655, -0.01600000075995922, -0.01600000075995922, 1.008000047877431, 0.0, 0.0, 0.0, 0.0, 0.0, 1.7400581597762463E9, 0.0, 2025-02-20 13:29:19.776
9.0, -345.9145666016266, -563.5636543729343, 13.925517485011369, -283.4862865912728, -0.01600000075995922, -0.01600000075995922, 1.008000047877431, 0.0, 0.0, 0.0, 0.0, 0.0, 1.7400581597763157E9, 0.0, 2025-02-20 13:29:19.776
10.0, -352.48557082377374, -562.8362438315526, 10.368872627150267, -357.0127197201364, -0.01600000075995922, -0.01600000075995922, 0.9920000471174717, 0.0, 0.0, 0.0, 0.0, 0.0, 1.7400581598053837E9, 0.0, 2025-02-20 13:29:19.805
10.0, -497.6161285042763, -711.5720650693402, 13.035421295557171, -381.4529659305699, -0.01600000075995922, -0.01600000075995922, 0.9920000471174717, 0.0, 0.0, 0.0, 0.0, 0.0, 1.7400581598054943E9, 0.0, 2025-02-20 13:29:19.805
11.0, -390.02668657898903, -591.3455011937767, 12.552974201273173, -599.3582368488424, -0.01600000075995922, -0.01600000075995922, 0.9920000471174717, 0.0, 0.0, 0.0, 0.0, 0.0, 1.7400581598060868E9, 0.0, 2025-02-20 13:29:19.806
11.0, -569.8878251980059, -787.0825151246972, 11.662878011818975, -613.4314803821035, -0.01600000075995922, -0.01600000075995922, 0.9920000471174717, 0.0, 0.0, 0.0, 0.0, 0.0, 1.7400581598064096E9, 0.0, 2025-02-20 13:29:19.806
12.0, -636.5552818081342, -853.5891560367309, 16.517268154304475, -391.74517060862854, 0.0, -0.01600000075995922, 0.9920000471174717, 0.0, 0.0, 0.0, 0.0, 0.0, 1.740058159806596E9, 0.0, 2025-02-20 13:29:19.806
12.0, -411.6732275225222, -630.2890794323757, 13.315913792233914, -382.3131429203786, 0.0, -0.01600000075995922, 0.9920000471174717, 0.0, 0.0, 0.0, 0.0, 0.0, 1.7400581598067188E9, 0.0, 2025-02-20 13:29:19.806
13.0, -337.14076130557805, -540.1238314006478, 6.890765668358654, -601.0598913286813, 0.0, -0.01600000075995922, 0.9920000471174717, 0.0, 0.0, 0.0, 0.0, 0.0, 1.7400581598350606E9, 0.0, 2025-02-20 13:29:19.835
13.0, -539.0785293630324, -758.1506490674801, 14.576260077301413, -613.992465375457, 0.0, -0.01600000075995922, 0.9920000471174717, 0.0, 0.0, 0.0, 0.0, 0.0, 1.7400581598352349E9, 0.0, 2025-02-20 13:29:19.835
14.0, -600.9738736297004, -826.1382903619669, 13.027941495645791, -397.37372004194185, 0.0, -0.01600000075995922, 0.9920000471174717, 0.0, 0.0, 0.0, 0.0, 0.0, 1.7400581598355205E9, 0.0, 2025-02-20 13:29:19.835
14.0, -397.2970520928502, -606.3948586154729, 9.112266242038459, -388.81682894332334, 0.0, -0.01600000075995922, 0.9920000471174717, 0.0, 0.0, 0.0, 0.0, 0.0, 1.740058159835658E9, 0.0, 2025-02-20 13:29:19.835
15.0, -328.47541310824454, -537.5133812315762, 11.389865315053612, -616.0456704511307, 0.0, -0.01600000075995922, 0.9920000471174717, 0.0, 0.0, 0.0, 0.0, 0.0, 1.740058159836206E9, 0.0, 2025-02-20 13:29:19.836
15.0, -524.9978060298599, -745.2031154208817, 7.2236167644150555, -617.5939890327863, 0.0, -0.01600000075995922, 0.9920000471174717, 0.0, 0.0, 0.0, 0.0, 0.0, 1.7400581598364394E9, 0.0, 2025-02-20 13:29:19.836
16.0, -598.1951279626228, -822.0169206107967, 14.512681778054684, -403.03592857485637, 0.0, -0.01600000075995922, 0.9920000471174717, 0.0, 0.0, 0.0, 0.0, 0.0, 1.7400581598651812E9, 0.0, 2025-02-20 13:29:19.865
16.0, -381.45857578050345, -608.0329347960651, 11.827433609869331, -393.1214537923224, 0.0, -0.01600000075995922, 0.9920000471174717, 0.0, 0.0, 0.0, 0.0, 0.0, 1.7400581598652492E9, 0.0, 2025-02-20 13:29:19.865
17.0, -310.23592102434486, -519.2888487474993, 5.5331819844432175, -612.7246392904781, 0.0, -0.01600000075995922, 0.9920000471174717, 0.0, 0.0, 0.0, 0.0, 0.0, 1.7400581598655164E9, 0.0, 2025-02-20 13:29:19.865
17.0, -525.6223693224601, -741.2537810676731, 14.497722178231925, -613.4913187813945, 0.0, -0.01600000075995922, 0.9920000471174717, 0.0, 0.0, 0.0, 0.0, 0.0, 1.7400581598656137E9, 0.0, 2025-02-20 13:29:19.865
18.0, -605.6188293746673, -831.6322033968754, 15.455136566888541, -401.04630179842934, 0.0, -0.01600000075995922, 0.9920000471174717, 0.0, 0.0, 0.0, 0.0, 0.0, 1.7400581598662007E9, 0.0, 2025-02-20 13:29:19.866
18.0, -394.1181371305138, -596.5140429325402, 11.408564814832062, -387.44428565958515, 0.0, -0.01600000075995922, 0.9920000471174717, 0.0, 0.0, 0.0, 0.0, 0.0, 1.7400581598662434E9, 0.0, 2025-02-20 13:29:19.866
19.0, -312.38262359891087, -515.324554794468, 8.786894945893437, -606.5687639634125, 0.0, -0.01600000075995922, 0.9920000471174717, 0.0, 0.0, 0.0, 0.0, 0.0, 1.7400581598952441E9, 0.0, 2025-02-20 13:29:19.895
19.0, -528.9957590824924, -744.2232616324909, 12.27996150450781, -607.0661706575193, 0.0, -0.01600000075995922, 0.9920000471174717, 0.0, 0.0, 0.0, 0.0, 0.0, 1.740058159895334E9, 0.0, 2025-02-20 13:29:19.895
20.0, -605.7272864733823, -834.0893176677637, 11.576860312838107, -389.9836777294986, 0.0, -0.01600000075995922, 0.9920000471174717, 0.0, 0.0, 0.0, 0.0, 0.0, 1.7400581598955069E9, 0.0, 2025-02-20 13:29:19.895
20.0, -389.53301978483796, -597.4377982215956, 15.556113865692168, -385.2340047857724, 0.0, -0.01600000075995922, 0.9920000471174717, 0.0, 0.0, 0.0, 0.0, 0.0, 1.7400581598955808E9, 0.0, 2025-02-20 13:29:19.895
21.0, -309.93672902788967, -514.7186910016462, 9.729349734727293, -603.9134349948727, 0.0, -0.01600000075995922, 0.9920000471174717, 0.0, 0.0, 0.0, 0.0, 0.0, 1.7400581598962495E9, 0.0, 2025-02-20 13:29:19.896
21.0, -525.1474020280875, -748.5054470817558, 10.724163122940809, -604.5529578872956, 0.0, -0.01600000075995922, 0.9920000471174717, 0.0, 0.0, 0.0, 0.0, 0.0, 1.7400581598964007E9, 0.0, 2025-02-20 13:29:19.896
22.0, -619.6097951089032, -836.8381441351958, 14.019014983903617, -378.2366519686766, -0.01600000075995922, -0.01600000075995922, 0.9920000471174717, 0.0, 0.0, 0.0, 0.0, 0.0, 1.740058159925222E9, 0.0, 2025-02-20 13:29:19.925
22.0, -390.53531297296286, -602.6661783596501, 13.46550979046151, -381.3519886317663, -0.01600000075995922, -0.01600000075995922, 0.9920000471174717, 0.0, 0.0, 0.0, 0.0, 0.0, 1.7400581599253333E9, 0.0, 2025-02-20 13:29:19.925
23.0, -308.3734508464113, -517.5984139675274, 12.448257002513856, -595.1209301990457, -0.01600000075995922, -0.01600000075995922, 0.9920000471174717, 0.0, 0.0, 0.0, 0.0, 0.0, 1.7400581599256043E9, 0.0, 2025-02-20 13:29:19.925
23.0, -535.8734351010062, -760.6750815375708, 11.46092341421172, -593.7895258148201, -0.01600000075995922, -0.01600000075995922, 0.9920000471174717, 0.0, 0.0, 0.0, 0.0, 0.0, 1.7400581599257696E9, 0.0, 2025-02-20 13:29:19.925
24.0, -618.7458782191388, -847.2874246113934, 16.487348954658955, -370.69327375805005, -0.01600000075995922, -0.01600000075995922, 0.9920000471174717, 0.0, 0.0, 0.0, 0.0, 0.0, 1.740058159926371E9, 0.0, 2025-02-20 13:29:19.926
24.0, -385.6921425303444, -1092.277051008772, 15.316760268528014, -378.3563287672587, -0.01600000075995922, -0.01600000075995922, 0.9920000471174717, 0.0, 0.0, 0.0, 0.0, 0.0, 1.7400581599266229E9, 0.0, 2025-02-20 13:29:19.926
