%OpenBCI Raw EXG Data
%Number of channels = 4
%Sample Rate = 200 Hz
%Board = OpenBCI_GUI$BoardGanglionNative
Sample Index, EXG Channel 0, EXG Channel 1, EXG Channel 2, EXG Channel 3, Accel Channel 0, Accel Channel 1, Accel Channel 2, Other, Other, Other, Other, Other, Timestamp, Marker Channel, Timestamp (Formatted)
0.0, -277.0349591677077, -495.58162292838097, 10.636275473982096, 189.74382425192744, 0.0, 0.0, 0.0, 0.0, 0.0, 0.0, 0.0, 0.0, 1.7400577245464735E9, 0.0, 2025-02-20 13:22:04.546
1.0, -397.01094974623993, -615.572573106736, 12.670781049877405, 98.89417452830821, 0.0, -0.01600000075995922, 0.0, 0.0, 0.0, 0.0, 0.0, 0.0, 1.740057724547016E9, 0.0, 2025-02-20 13:22:04.547
1.0, -183.84039217187092, -434.63247335050255, 10.44180067628622, 342.42710989294574, 0.0, -0.01600000075995922, 0.0, 0.0, 0.0, 0.0, 0.0, 0.0, 1.740057724547066E9, 0.0, 2025-02-20 13:22:04.547
2.0, -62.4918583096005, -315.8943896573037, 13.052250845357776, 431.35445103934035, 0.0, -0.01600000075995922, 0.0, 0.0, 0.0, 0.0, 0.0, 0.0, 1.7400577245763729E9, 0.0, 2025-02-20 13:22:04.576
2.0, -270.3367983470671, -498.25939129665494, 19.066009974107146, 675.5661782459356, 0.0, -0.01600000075995922, 0.0, 0.0, 0.0, 0.0, 0.0, 0.0, 1.7400577245764213E9, 0.0, 2025-02-20 13:22:04.576
3.0, -391.04206941695884, -602.4679636619985, 12.44264715258032, 588.2993526798673, 0.0, -0.01600000075995922, 0.0, 0.0, 0.0, 0.0, 0.0, 0.0, 1.7400577245770657E9, 0.0, 2025-02-20 13:22:04.577
3.0, -192.67403586721048, -437.8076484128833, 10.07155058067292, 830.3849467616528, 0.0, -0.01600000075995922, 0.0, 0.0, 0.0, 0.0, 0.0, 0.0, 1.7400577245771015E9, 0.0, 2025-02-20 13:22:04.577
4.0, -55.146694796625525, -311.4027698105201, 12.842816447839141, 922.0947734750807, 0.0, -0.01600000075995922, 0.0, 0.0, 0.0, 0.0, 0.0, 0.0, 1.7400577245776007E9, 0.0, 2025-02-20 13:22:04.577
4.0, -272.5508191208355, -486.8938353313133, 15.356029218062758, 678.2289870143868, 0.0, -0.01600000075995922, 0.0, 0.0, 0.0, 0.0, 0.0, 0.0, 1.7400577245776346E9, 0.0, 2025-02-20 13:22:04.577
5.0, -401.7606226899661, -610.2693949695677, 7.341423613019288, 590.2777597564273, 0.0, -0.01600000075995922, 0.0, 0.0, 0.0, 0.0, 0.0, 0.0, 1.7400577245783043E9, 0.0, 2025-02-20 13:22:04.578
5.0, -187.3334587304853, -438.0507419100031, 7.872489406727254, 345.2170752598904, 0.0, -0.01600000075995922, 0.0, 0.0, 0.0, 0.0, 0.0, 0.0, 1.7400577245783377E9, 0.0, 2025-02-20 13:22:04.578
6.0, -56.350942582357675, -305.4712884807959, 10.789611372165382, 422.24405474727973, 0.0, -0.01600000075995922, 0.0, 0.0, 0.0, 0.0, 0.0, 0.0, 1.7400577246068044E9, 0.0, 2025-02-20 13:22:04.606
6.0, -268.7772600655444, -472.46904120221734, 16.818330100737512, 658.6244314466603, 0.0, -0.01600000075995922, 0.0, 0.0, 0.0, 0.0, 0.0, 0.0, 1.7400577246068537E9, 0.0, 2025-02-20 13:22:04.606
7.0, -402.979830075521, -590.425485804677, 8.46713349968195, 570.5049086906947, 0.0, -0.01600000075995922, 0.0, 0.0, 0.0, 0.0, 0.0, 0.0, 1.7400577246070385E9, 0.0, 2025-02-20 13:22:04.607
7.0, -182.2509346907027, -410.2296261396259, 11.773205060511827, 331.1438317266293, 0.0, -0.01600000075995922, 0.0, 0.0, 0.0, 0.0, 0.0, 0.0, 1.7400577246070695E9, 0.0, 2025-02-20 13:22:04.607
8.0, -62.009411215316504, -294.34508611261845, 13.953566734679043, 411.2861478771083, 0.0, -0.01600000075995922, 0.0, 0.0, 0.0, 0.0, 0.0, 0.0, 1.7400577246363585E9, 0.0, 2025-02-20 13:22:04.636
8.0, -278.35514385206625, -473.21328129339963, 16.683693702332675, 169.70170038938522, 0.0, -0.01600000075995922, 0.0, 0.0, 0.0, 0.0, 0.0, 0.0, 1.7400577246363993E9, 0.0, 2025-02-20 13:22:04.636
9.0, -401.8840393885039, -583.0429232921451, 11.178560967557132, 86.13363587949425, 0.0, -0.01600000075995922, 0.0, 0.0, 0.0, 0.0, 0.0, 0.0, 1.7400577246368241E9, 0.0, 2025-02-20 13:22:04.636
9.0, -198.10437060287222, -414.3135968912393, 6.384009224362671, -155.61723715625703, 0.0, -0.01600000075995922, 0.0, 0.0, 0.0, 0.0, 0.0, 0.0, 1.740057724636852E9, 0.0, 2025-02-20 13:22:04.636
10.0, -62.92568670446053, -294.12069211527705, 12.726879549212754, -73.94156202394515, 0.0, -0.01600000075995922, 0.9920000471174717, 0.0, 0.0, 0.0, 0.0, 0.0, 1.7400577246373563E9, 0.0, 2025-02-20 13:22:04.637
10.0, -282.0352054084651, -473.65458948817104, 13.557137339375913, -311.2700033620931, 0.0, -0.01600000075995922, 0.9920000471174717, 0.0, 0.0, 0.0, 0.0, 0.0, 1.7400577246373835E9, 0.0, 2025-02-20 13:22:04.637
11.0, -405.75483584264293, -585.2419844660908, 12.981192746199667, -395.01010326994583, 0.0, -0.01600000075995922, 0.9920000471174717, 0.0, 0.0, 0.0, 0.0, 0.0, 1.740057724638235E9, 0.0, 2025-02-20 13:22:04.638
11.0, -198.5606383974664, -417.1521809576079, 12.371589053422213, -154.9627546640113, 0.0, -0.01600000075995922, 0.9920000471174717, 0.0, 0.0, 0.0, 0.0, 0.0, 1.7400577246382668E9, 0.0, 2025-02-20 13:22:04.638
12.0, -69.75100412359461, -298.78434736002237, 10.07155058067292, -60.148810987360775, 0.0, -0.01600000075995922, 0.9920000471174717, 0.0, 0.0, 0.0, 0.0, 0.0, 1.7400577246664944E9, 0.0, 2025-02-20 13:22:04.666
12.0, -280.12785643106326, -484.81071105599403, 16.07782990951091, 183.4570524264127, 0.0, -0.01600000075995922, 0.9920000471174717, 0.0, 0.0, 0.0, 0.0, 0.0, 1.740057724666656E9, 0.0, 2025-02-20 13:22:04.666
13.0, -404.48700975766405, -602.5577212609351, 12.304270854219794, 96.40714105777442, 0.0, -0.01600000075995922, 0.9920000471174717, 0.0, 0.0, 0.0, 0.0, 0.0, 1.7400577246674967E9, 0.0, 2025-02-20 13:22:04.667
13.0, -198.710234395694, -439.3297876948491, 8.732666396535933, -147.93174274731427, 0.0, -0.01600000075995922, 0.9920000471174717, 0.0, 0.0, 0.0, 0.0, 0.0, 1.7400577246675549E9, 0.0, 2025-02-20 13:22:04.667
14.0, -49.81733735976741, -308.2238548481837, 14.660407826304436, -66.89933040738106, 0.0, -0.01600000075995922, 0.9920000471174717, 0.0, 0.0, 0.0, 0.0, 0.0, 1.7400577246966133E9, 0.0, 2025-02-20 13:22:04.696
14.0, -268.94929546350613, -474.21183458156884, 13.796490936540067, 174.87024212814867, 0.0, -0.01600000075995922, 0.9920000471174717, 0.0, 0.0, 0.0, 0.0, 0.0, 1.7400577246966891E9, 0.0, 2025-02-20 13:22:04.696
15.0, -406.11760613834485, -605.5646008253098, 10.699853773228824, 87.57723726239055, 0.0, -0.01600000075995922, 0.9920000471174717, 0.0, 0.0, 0.0, 0.0, 0.0, 1.7400577246970053E9, 0.0, 2025-02-20 13:22:04.697
15.0, -183.78803357249126, -418.5322040412575, 10.277245078235865, 318.18133848020807, 0.0, -0.01600000075995922, 0.9920000471174717, 0.0, 0.0, 0.0, 0.0, 0.0, 1.740057724697075E9, 0.0, 2025-02-20 13:22:04.697
16.0, -53.25804531900212, -293.92995721753687, 11.593689862638712, 396.6444395505823, 0.0, -0.01600000075995922, 0.9920000471174717, 0.0, 0.0, 0.0, 0.0, 0.0, 1.74005772469777E9, 0.0, 2025-02-20 13:22:04.697
16.0, -262.9654555344023, -470.41957602649927, 15.404647917486727, 156.98230064008385, 0.0, -0.01600000075995922, 0.9920000471174717, 0.0, 0.0, 0.0, 0.0, 0.0, 1.7400577246978333E9, 0.0, 2025-02-20 13:22:04.697
17.0, -403.7652090662159, -609.203523482196, 11.24213926680386, 81.95616762898862, 0.0, -0.01600000075995922, 0.9920000471174717, 0.0, 0.0, 0.0, 0.0, 0.0, 1.7400577246984272E9, 0.0, 2025-02-20 13:22:04.698
17.0, -190.01496699871495, -430.6532197976485, 8.526971898972988, -160.47536719869822, 0.0, -0.01600000075995922, 0.9920000471174717, 0.0, 0.0, 0.0, 0.0, 0.0, 1.740057724698486E9, 0.0, 2025-02-20 13:22:04.698
18.0, -50.748572448734194, -310.16860282514244, 11.309457466006279, -85.0378451924771, 0.0, -0.01600000075995922, 0.9920000471174717, 0.0, 0.0, 0.0, 0.0, 0.0, 1.7400577247267175E9, 0.0, 2025-02-20 13:22:04.726
18.0, -272.90236971667036, -481.3400838971138, 20.397414358332753, -323.3237009192817, 0.0, -0.01600000075995922, 0.9920000471174717, 0.0, 0.0, 0.0, 0.0, 0.0, 1.7400577247268105E9, 0.0, 2025-02-20 13:22:04.726
19.0, -402.7703956780024, -608.4592833910137, 11.103762968443334, -409.7228696956299, 0.0, -0.01600000075995922, 0.9920000471174717, 0.0, 0.0, 0.0, 0.0, 0.0, 1.740057724727086E9, 0.0, 2025-02-20 13:22:04.727
19.0, -195.46026133419946, -429.88280040677637, 11.589949962683022, -175.70423981826752, 0.0, -0.01600000075995922, 0.9920000471174717, 0.0, 0.0, 0.0, 0.0, 0.0, 1.7400577247271428E9, 0.0, 2025-02-20 13:22:04.727
20.0, -48.39617537660524, -298.19344316702336, 10.789611372165382, -87.25560586620122, 0.0, -0.01600000075995922, 0.5120000243186951, 0.0, 0.0, 0.0, 0.0, 0.0, 1.7400577247567897E9, 0.0, 2025-02-20 13:22:04.756
20.0, -254.5432008341886, -472.86547059752047, 16.620115403085947, 157.10197743866593, 0.0, -0.01600000075995922, 0.5120000243186951, 0.0, 0.0, 0.0, 0.0, 0.0, 1.7400577247568424E9, 0.0, 2025-02-20 13:22:04.756
21.0, -395.63840646250173, -602.8456935575232, 10.243585978634655, 86.34681017696857, 0.0, -0.01600000075995922, 0.5120000243186951, 0.0, 0.0, 0.0, 0.0, 0.0, 1.7400577247569766E9, 0.0, 2025-02-20 13:22:04.756
21.0, -189.6297573032789, -432.3548742774874, 12.84655634779483, -154.94779506418854, 0.0, -0.01600000075995922, 0.5120000243186951, 0.0, 0.0, 0.0, 0.0, 0.0, 1.7400577247570045E9, 0.0, 2025-02-20 13:22:04.757
22.0, -51.80322423623875, -298.27198106609285, 9.465686787851155, -71.01696025859565, 0.0, -0.01600000075995922, 0.5120000243186951, 0.0, 0.0, 0.0, 0.0, 0.0, 1.7400577247577064E9, 0.0, 2025-02-20 13:22:04.757
22.0, -262.3745513414033, -483.1988141750917, 15.075536721386015, -315.10714071663097, 0.0, -0.01600000075995922, 0.5120000243186951, 0.0, 0.0, 0.0, 0.0, 0.0, 1.740057724757755E9, 0.0, 2025-02-20 13:22:04.757
23.0, -406.4766365340911, -613.1752972351387, 8.642908797599375, -395.3279947661795, 0.0, -0.01600000075995922, 0.5120000243186951, 0.0, 0.0, 0.0, 0.0, 0.0, 1.7400577247587585E9, 0.0, 2025-02-20 13:22:04.758
23.0, -196.87768341740593, -437.86000701226294, 6.226933426223695, -153.34711788315326, 0.0, -0.01600000075995922, 0.5120000243186951, 0.0, 0.0, 0.0, 0.0, 0.0, 1.7400577247589447E9, 0.0, 2025-02-20 13:22:04.758
24.0, -50.277345054317266, -300.9572292342782, 9.454467087984085, -78.27984597254544, 0.0, -0.01600000075995922, 0.5120000243186951, 0.0, 0.0, 0.0, 0.0, 0.0, 1.740057724786518E9, 0.0, 2025-02-20 13:22:04.786
24.0, -254.68531703250483, -477.06537824776024, 14.249018831178546, -319.41550546558574, 0.0, -0.01600000075995922, 0.5120000243186951, 0.0, 0.0, 0.0, 0.0, 0.0, 1.7400577247865808E9, 0.0, 2025-02-20 13:22:04.786
25.0, -406.0652475389652, -612.4946354432032, 5.673428232781589, -393.25609019072726, 0.0, -0.01600000075995922, 0.5120000243186951, 0.0, 0.0, 0.0, 0.0, 0.0, 1.7400577247869813E9, 0.0, 2025-02-20 13:22:04.786
25.0, -198.39234289946035, -436.78291582502425, 9.794797983951867, -158.7437935192138, 0.0, -0.01600000075995922, 0.5120000243186951, 0.0, 0.0, 0.0, 0.0, 0.0, 1.7400577247870233E9, 0.0, 2025-02-20 13:22:04.787
26.0, -54.50343200424686, -299.6220849500969, 13.194367043673992, -82.01600602827966, 0.0, -0.01600000075995922, 0.5120000243186951, 0.0, 0.0, 0.0, 0.0, 0.0, 1.740057724816894E9, 0.0, 2025-02-20 13:22:04.816
26.0, -259.2592146783136, -473.50873338989913, 15.423347417265177, -315.6045474107377, 0.0, -0.01600000075995922, 0.5120000243186951, 0.0, 0.0, 0.0, 0.0, 0.0, 1.7400577248170092E9, 0.0, 2025-02-20 13:22:04.817
27.0, -412.5502340621315, -606.2602222170681, 8.624209297820926, -408.926271005068, 0.0, -0.01600000075995922, 0.5120000243186951, 0.0, 0.0, 0.0, 0.0, 0.0, 1.7400577248171933E9, 0.0, 2025-02-20 13:22:04.817
27.0, -192.72265456663445, -424.833935466595, 12.689480549655855, -166.92295472230762, 0.0, -0.01600000075995922, 0.5120000243186951, 0.0, 0.0, 0.0, 0.0, 0.0, 1.7400577248174667E9, 0.0, 2025-02-20 13:22:04.817
28.0, -55.180353896226734, -299.83151934761554, 11.612389362417161, -90.89078862313181, 0.0, -0.01600000075995922, 0.5120000243186951, 0.0, 0.0, 0.0, 0.0, 0.0, 1.7400577248175085E9, 0.0, 2025-02-20 13:22:04.817
28.0, -273.57181180873886, -461.5522732315585, 17.798183889128268, -324.8794993008487, 0.0, -0.01600000075995922, 0.5120000243186951, 0.0, 0.0, 0.0, 0.0, 0.0, 1.7400577248175428E9, 0.0, 2025-02-20 13:22:04.817
29.0, -405.16019174968824, -599.0048163030297, 12.764278548769653, -411.5928196734749, 0.0, -0.01600000075995922, 0.5120000243186951, 0.0, 0.0, 0.0, 0.0, 0.0, 1.7400577248182857E9, 0.0, 2025-02-20 13:22:04.818
29.0, -201.12246986711398, -433.3459477657452, 8.41851480025798, -656.1037388765253, 0.0, -0.01600000075995922, 0.5120000243186951, 0.0, 0.0, 0.0, 0.0, 0.0, 1.7400577248183153E9, 0.0, 2025-02-20 13:22:04.818
30.0, -51.152481643948704, -291.18861055001616, 9.005679093301296, -580.0079944781028, 0.0, -0.01600000075995922, 0.7520000357180834, 0.0, 0.0, 0.0, 0.0, 0.0, 1.7400577248464007E9, 0.0, 2025-02-20 13:22:04.846
30.0, -251.97014966467395, -456.1481177955866, 11.735806060954928, -802.1935808956623, 0.0, -0.01600000075995922, 0.7520000357180834, 0.0, 0.0, 0.0, 0.0, 0.0, 1.7400577248464484E9, 0.0, 2025-02-20 13:22:04.846
31.0, -411.6526580727659, -604.7193834353238, 12.405248153023422, -875.3946427283809, 0.0, -0.01600000075995922, 0.7520000357180834, 0.0, 0.0, 0.0, 0.0, 0.0, 1.7400577248471525E9, 0.0, 2025-02-20 13:22:04.847
31.0, -195.5537588330917, -428.4204995241016, 9.936914182268083, -652.6779905171134, 0.0, -0.01600000075995922, 0.7520000357180834, 0.0, 0.0, 0.0, 0.0, 0.0, 1.7400577248472276E9, 0.0, 2025-02-20 13:22:04.847
32.0, -54.323916806373745, -283.9219849361107, 10.87562907114625, -570.3665323923342, 0.0, -0.01600000075995922, 0.7520000357180834, 0.0, 0.0, 0.0, 0.0, 0.0, 1.7400577248765879E9, 0.0, 2025-02-20 13:22:04.876
32.0, -268.709941866342, -467.20700196456164, 18.359168882481754, -799.882322723046, 0.0, -0.01600000075995922, 0.7520000357180834, 0.0, 0.0, 0.0, 0.0, 0.0, 1.7400577248766527E9, 0.0, 2025-02-20 13:22:04.876
33.0, -413.45528985140845, -606.1143661187962, 12.379068853333592, -879.2243002830073, 0.0, -0.01600000075995922, 0.7520000357180834, 0.0, 0.0, 0.0, 0.0, 0.0, 1.7400577248768747E9, 0.0, 2025-02-20 13:22:04.876
33.0, -210.5993763548322, -437.6243933150545, 8.209080402739346, -1124.3036842793226, 0.0, -0.01600000075995922, 0.7520000357180834, 0.0, 0.0, 0.0, 0.0, 0.0, 1.7400577248769145E9, 0.0, 2025-02-20 13:22:04.876
34.0, -55.62540199095383, -292.2096032379195, 10.565217374823987, -1054.0047848122194, 0.0, -0.01600000075995922, 0.7520000357180834, 0.0, 0.0, 0.0, 0.0, 0.0, 1.7400577248775265E9, 0.0, 2025-02-20 13:22:04.877
34.0, -263.1487106322311, -466.515120472759, 11.343116565607488, -814.8793215453625, 0.0, -0.01600000075995922, 0.7520000357180834, 0.0, 0.0, 0.0, 0.0, 0.0, 1.7400577248776884E9, 0.0, 2025-02-20 13:22:04.877
35.0, -413.0738200559281, -603.5487947491929, 11.25709886662662, -894.6850466998294, 0.0, -0.01600000075995922, 0.7520000357180834, 0.0, 0.0, 0.0, 0.0, 0.0, 1.740057724878939E9, 0.0, 2025-02-20 13:22:04.878
35.0, -199.72374728368595, -435.7207842376083, 8.302577901631594, -650.161037846934, 0.0, -0.01600000075995922, 0.7520000357180834, 0.0, 0.0, 0.0, 0.0, 0.0, 1.7400577248789973E9, 0.0, 2025-02-20 13:22:04.878
36.0, -40.299291972536594, -290.89315845351666, 12.674520949833095, -575.9015843267553, 0.0, -0.01600000075995922, 0.7520000357180834, 0.0, 0.0, 0.0, 0.0, 0.0, 1.740057724906901E9, 0.0, 2025-02-20 13:22:04.906
36.0, -255.93444361770526, -467.01626706682146, 14.047064233571291, -808.5327113205567, 0.0, -0.01600000075995922, 0.7520000357180834, 0.0, 0.0, 0.0, 0.0, 0.0, 1.7400577249070332E9, 0.0, 2025-02-20 13:22:04.907
37.0, -410.108079391066, -607.2400760054588, 8.627949197776616, -886.3637692984194, 0.0, -0.01600000075995922, 0.7520000357180834, 0.0, 0.0, 0.0, 0.0, 0.0, 1.7400577249071927E9, 0.0, 2025-02-20 13:22:04.907
37.0, -202.3753363522701, -434.25848335493356, 9.117876091971993, -642.5503414371051, 0.0, -0.01600000075995922, 0.7520000357180834, 0.0, 0.0, 0.0, 0.0, 0.0, 1.7400577249073224E9, 0.0, 2025-02-20 13:22:04.907
38.0, -46.06995760416612, -299.3266328535974, 11.343116565607488, -563.6571518718265, 0.0, -0.01600000075995922, 0.7520000357180834, 0.0, 0.0, 0.0, 0.0, 0.0, 1.7400577249369676E9, 0.0, 2025-02-20 13:22:04.936
38.0, -264.19588261982426, -457.6590373776853, 17.835582888685167, -807.1003296375275, 0.0, -0.01600000075995922, 0.7520000357180834, 0.0, 0.0, 0.0, 0.0, 0.0, 1.740057724937054E9, 0.0, 2025-02-20 13:22:04.937
39.0, -419.52888737944886, -611.507301854901, 12.03873795736581, -886.8200370930135, 0.0, -0.01600000075995922, 0.7520000357180834, 0.0, 0.0, 0.0, 0.0, 0.0, 1.7400577249371855E9, 0.0, 2025-02-20 13:22:04.937
39.0, -214.96383960312232, -434.86060724779963, 7.087110416032374, -649.7459089518525, 0.0, -0.01600000075995922, 0.7520000357180834, 0.0, 0.0, 0.0, 0.0, 0.0, 1.7400577249372537E9, 0.0, 2025-02-20 13:22:04.937
40.0, -62.349742111284286, -276.26640972681344, 11.429134264588356, -570.1234388952143, 0.0, -0.01600000075995922, 0.8800000417977571, 0.0, 0.0, 0.0, 0.0, 0.0, 1.7400577249375792E9, 0.0, 2025-02-20 13:22:04.937
40.0, -267.98440127493814, -458.2088026711717, 13.990965734235942, -814.1575208539143, 0.0, -0.01600000075995922, 0.8800000417977571, 0.0, 0.0, 0.0, 0.0, 0.0, 1.7400577249377024E9, 0.0, 2025-02-20 13:22:04.937
41.0, -426.7805533935316, -595.5304492441937, 12.109796056523919, -883.5999832311645, 0.0, -0.01600000075995922, 0.8800000417977571, 0.0, 0.0, 0.0, 0.0, 0.0, 1.74005772493862E9, 0.0, 2025-02-20 13:22:04.938
41.0, -224.25001119310036, -434.60255415085703, 10.729772972874343, -639.1171132777818, 0.0, -0.01600000075995922, 0.8800000417977571, 0.0, 0.0, 0.0, 0.0, 0.0, 1.7400577249386823E9, 0.0, 2025-02-20 13:22:04.938
42.0, -58.47146585723385, -282.5494416523725, 12.581023450940847, -566.3760591396131, 0.0, -0.01600000075995922, 0.8800000417977571, 0.0, 0.0, 0.0, 0.0, 0.0, 1.7400577249670615E9, 0.0, 2025-02-20 13:22:04.967
42.0, -268.3284720708616, -461.5485333316028, 15.625302014872432, -786.1755893854424, 0.0, -0.01600000075995922, 0.8800000417977571, 0.0, 0.0, 0.0, 0.0, 0.0, 1.7400577249671829E9, 0.0, 2025-02-20 13:22:04.967
43.0, -429.79865265777335, -610.5760667659342, 12.326710253953934, -855.5133345639333, 0.0, -0.01600000075995922, 0.8800000417977571, 0.0, 0.0, 0.0, 0.0, 0.0, 1.7400577249674692E9, 0.0, 2025-02-20 13:22:04.967
43.0, -231.37078070873395, -441.5438084686175, 9.080477092415094, -617.971718928311, 0.0, -0.01600000075995922, 0.8800000417977571, 0.0, 0.0, 0.0, 0.0, 0.0, 1.7400577249675107E9, 0.0, 2025-02-20 13:22:04.967
44.0, -56.754851777572185, -294.15435121487826, 6.514905722811818, -557.4713573451154, 0.0, -0.01600000075995922, 0.8800000417977571, 0.0, 0.0, 0.0, 0.0, 0.0, 1.7400577249967928E9, 0.0, 2025-02-20 13:22:04.996
44.0, -264.3230392183177, -463.2614075113088, 13.078430145047605, -795.9853469692171, 0.0, -0.01600000075995922, 0.8800000417977571, 0.0, 0.0, 0.0, 0.0, 0.0, 1.7400577249968805E9, 0.0, 2025-02-20 13:22:04.996
45.0, -429.5293798609637, -606.9296643091366, 10.539038075134158, -877.9676938978955, 0.0, -0.01600000075995922, 0.8800000417977571, 0.0, 0.0, 0.0, 0.0, 0.0, 1.7400577249971812E9, 0.0, 2025-02-20 13:22:04.997
45.0, -218.4157672622241, -443.85506664123386, 4.944147741422057, -641.1329193538986, 0.0, -0.01600000075995922, 0.8800000417977571, 0.0, 0.0, 0.0, 0.0, 0.0, 1.7400577249972577E9, 0.0, 2025-02-20 13:22:04.997
46.0, -60.12824153760448, -287.0934200985357, 10.314644077792764, -572.8722653626464, 0.0, -0.01600000075995922, 0.8800000417977571, 0.0, 0.0, 0.0, 0.0, 0.0, 1.7400577249977121E9, 0.0, 2025-02-20 13:22:04.997
46.0, -272.3301650234498, -457.3561054812744, 12.614682550542057, -805.6791676543653, 0.0, -0.01600000075995922, 0.8800000417977571, 0.0, 0.0, 0.0, 0.0, 0.0, 1.7400577249977617E9, 0.0, 2025-02-20 13:22:04.997
47.0, -427.79406628152356, -612.3899182444438, 12.180854155682027, -878.5922571904957, 0.0, -0.01600000075995922, 0.8800000417977571, 0.0, 0.0, 0.0, 0.0, 0.0, 1.7400577249988024E9, 0.0, 2025-02-20 13:22:04.998
47.0, -226.63606736483052, -439.3484871946275, 10.580176974646747, -1123.5108254887164, 0.0, -0.01600000075995922, 0.8800000417977571, 0.0, 0.0, 0.0, 0.0, 0.0, 1.7400577249993007E9, 0.0, 2025-02-20 13:22:04.999
48.0, -56.54541738005355, -290.8856786536053, 11.29823776613921, -1054.0608833115548, 0.0, -0.01600000075995922, 0.8800000417977571, 0.0, 0.0, 0.0, 0.0, 0.0, 1.740057725026562E9, 0.0, 2025-02-20 13:22:05.026
48.0, -271.9599149278365, -459.79078035242856, 14.723986125551164, -1295.8061464973725, 0.0, -0.01600000075995922, 0.8800000417977571, 0.0, 0.0, 0.0, 0.0, 0.0, 1.7400577250266256E9, 0.0, 2025-02-20 13:22:05.026
49.0, -437.75715976348147, -622.121137929149, 11.126202368177474, -1375.9970813472755, 0.0, -0.01600000075995922, 0.8800000417977571, 0.0, 0.0, 0.0, 0.0, 0.0, 1.7400577250272083E9, 0.0, 2025-02-20 13:22:05.027
49.0, -228.37138094427064, -451.05063415598124, 8.762585596181452, -1136.8211294310167, 0.0, -0.01600000075995922, 0.8800000417977571, 0.0, 0.0, 0.0, 0.0, 0.0, 1.7400577250276277E9, 0.0, 2025-02-20 13:22:05.027
50.0, -60.50597143312916, -284.991596323438, 12.87647554744035, -1061.1704331273213, 0.0, -0.01600000075995922, 0.944000044837594, 0.0, 0.0, 0.0, 0.0, 0.0, 1.740057725056582E9, 0.0, 2025-02-20 13:22:05.056
50.0, -265.19817580794916, -461.12218473665416, 18.411527481861413, -1303.0054539120756, 0.0, -0.01600000075995922, 0.944000044837594, 0.0, 0.0, 0.0, 0.0, 0.0, 1.740057725056753E9, 0.0, 2025-02-20 13:22:05.056
51.0, -436.73242717562243, -618.0633464772254, 10.737252772785723, -1365.3383664735593, 0.0, -0.01600000075995922, 0.944000044837594, 0.0, 0.0, 0.0, 0.0, 0.0, 1.7400577250568771E9, 0.0, 2025-02-20 13:22:05.056
51.0, -228.72667144006118, -450.4036314636469, 9.24503269046545, -1610.2644145716913, 0.0, -0.01600000075995922, 0.944000044837594, 0.0, 0.0, 0.0, 0.0, 0.0, 1.7400577250569043E9, 0.0, 2025-02-20 13:22:05.056
52.0, -58.4901653570123, -280.26062287949026, 11.021485169418156, -1550.0295858853497, 0.0, -0.01600000075995922, 0.944000044837594, 0.0, 0.0, 0.0, 0.0, 0.0, 1.7400577250575635E9, 0.0, 2025-02-20 13:22:05.057
52.0, -263.1524505321868, -460.79307354055345, 14.47715272847563, -1791.9581041689962, 0.0, -0.01600000075995922, 0.944000044837594, 0.0, 0.0, 0.0, 0.0, 0.0, 1.7400577250575967E9, 0.0, 2025-02-20 13:22:05.057
53.0, -428.6953821708448, -626.5416996767744, 9.993012681603432, -1855.6074615148827, 0.0, -0.01600000075995922, 0.944000044837594, 0.0, 0.0, 0.0, 0.0, 0.0, 1.7400577250584235E9, 0.0, 2025-02-20 13:22:05.058
53.0, -226.91655986150727, -450.8860785579309, 3.6314428569748998, -1617.3739643874578, 0.0, -0.01600000075995922, 0.944000044837594, 0.0, 0.0, 0.0, 0.0, 0.0, 1.740057725058914E9, 0.0, 2025-02-20 13:22:05.058
54.0, -61.35866862302646, -290.3920118594542, 11.305717566050589, -1544.490794050973, 0.0, -0.01600000075995922, 0.944000044837594, 0.0, 0.0, 0.0, 0.0, 0.0, 1.740057725086468E9, 0.0, 2025-02-20 13:22:05.086
54.0, -265.6993224020116, -464.6713497946039, 15.187733720056713, -1779.4593585170805, 0.0, -0.01600000075995922, 0.944000044837594, 0.0, 0.0, 0.0, 0.0, 0.0, 1.7400577250865357E9, 0.0, 2025-02-20 13:22:05.086
55.0, -438.7856322512962, -617.8352125799283, 13.422500940971076, -1865.2003049012274, 0.0, -0.01600000075995922, 0.944000044837594, 0.0, 0.0, 0.0, 0.0, 0.0, 1.740057725087104E9, 0.0, 2025-02-20 13:22:05.087
55.0, -229.74766412796453, -450.6242855610326, 13.026071545667946, -1620.2798666530289, 0.0, -0.01600000075995922, 0.944000044837594, 0.0, 0.0, 0.0, 0.0, 0.0, 1.740057725087149E9, 0.0, 2025-02-20 13:22:05.087
56.0, -50.09408995648846, -287.2841549962759, 14.50333202816546, -1548.45882790396, 0.0, -0.01600000075995922, 0.944000044837594, 0.0, 0.0, 0.0, 0.0, 0.0, 1.7400577251172235E9, 0.0, 2025-02-20 13:22:05.117
56.0, -260.9122504587285, -443.5820539444685, 17.31199689488858, -1778.090555133298, 0.0, -0.01600000075995922, 0.944000044837594, 0.0, 0.0, 0.0, 0.0, 0.0, 1.7400577251175065E9, 0.0, 2025-02-20 13:22:05.117
57.0, -428.9309958680533, -602.5988601604477, 12.386548653244972, -1853.2700240425766, 0.0, -0.01600000075995922, 0.944000044837594, 0.0, 0.0, 0.0, 0.0, 0.0, 1.740057725117818E9, 0.0, 2025-02-20 13:22:05.117
57.0, -225.44303927896544, -432.88967997115105, 9.62650248594582, -1613.4096704344265, 0.0, -0.01600000075995922, 0.944000044837594, 0.0, 0.0, 0.0, 0.0, 0.0, 1.7400577251178658E9, 0.0, 2025-02-20 13:22:05.117
58.0, -47.539738286752254, -271.7261711806059, 16.283524407073855, -1536.939936040435, 0.0, -0.01600000075995922, 0.944000044837594, 0.0, 0.0, 0.0, 0.0, 0.0, 1.7400577251180124E9, 0.0, 2025-02-20 13:22:05.118
58.0, -263.24220813112333, -444.0158823393285, 14.133081932552159, -1773.8532484835014, 0.0, -0.01600000075995922, 0.944000044837594, 0.0, 0.0, 0.0, 0.0, 0.0, 1.740057725118049E9, 0.0, 2025-02-20 13:22:05.118
59.0, -441.91592851420864, -614.8732118150219, 11.085063468664885, -1831.7095007980242, 0.0, -0.01600000075995922, 0.944000044837594, 0.0, 0.0, 0.0, 0.0, 0.0, 1.7400577251183724E9, 0.0, 2025-02-20 13:22:05.118
59.0, -232.72836439264938, -442.1384525615722, 9.020638693124056, -1605.0322945336811, 0.0, -0.01600000075995922, 0.944000044837594, 0.0, 0.0, 0.0, 0.0, 0.0, 1.7400577251184285E9, 0.0, 2025-02-20 13:22:05.118
60.0, -57.39811456995085, -280.6196532752365, 10.280984978191555, -1543.970947957132, 0.0, -0.01600000075995922, 0.9760000463575125, 0.0, 0.0, 0.0, 0.0, 0.0, 1.7400577251464448E9, 0.0, 2025-02-20 13:22:05.146
60.0, -269.9328891518526, -453.3357130289078, 14.787564424797893, -1775.3155493661761, 0.0, -0.01600000075995922, 0.9760000463575125, 0.0, 0.0, 0.0, 0.0, 0.0, 1.740057725146563E9, 0.0, 2025-02-20 13:22:05.146
61.0, -448.6066095349379, -619.5780059592798, 16.276044607162476, -1836.5788505403325, 0.0, -0.01600000075995922, 0.9760000463575125, 0.0, 0.0, 0.0, 0.0, 0.0, 1.7400577251474695E9, 0.0, 2025-02-20 13:22:05.147
61.0, -240.6158133991994, -446.398198611103, 9.892035382799804, -1604.673264137935, 0.0, -0.01600000075995922, 0.9760000463575125, 0.0, 0.0, 0.0, 0.0, 0.0, 1.7400577251475365E9, 0.0, 2025-02-20 13:22:05.147
62.0, -52.43900722870603, -281.15071906894445, 12.300530954264104, -1533.8545185769908, -0.01600000075995922, -0.01600000075995922, 0.9760000463575125, 0.0, 0.0, 0.0, 0.0, 0.0, 1.7400577251764264E9, 0.0, 2025-02-20 13:22:05.176
62.0, -264.5960519150831, -452.53163453843445, 12.360369353555143, -1292.7880472331308, -0.01600000075995922, -0.01600000075995922, 0.9760000463575125, 0.0, 0.0, 0.0, 0.0, 0.0, 1.7400577251765056E9, 0.0, 2025-02-20 13:22:05.176
63.0, -437.72724056383595, -611.0323345605284, 12.528664851561189, -1355.0947804949246, -0.01600000075995922, -0.01600000075995922, 0.9760000463575125, 0.0, 0.0, 0.0, 0.0, 0.0, 1.740057725176774E9, 0.0, 2025-02-20 13:22:05.176
63.0, -243.18512466875836, -447.04520130343735, 12.992412446066737, -1123.9409139836207, -0.01600000075995922, -0.01600000075995922, 0.9760000463575125, 0.0, 0.0, 0.0, 0.0, 0.0, 1.740057725176875E9, 0.0, 2025-02-20 13:22:05.176
64.0, -40.72564056748524, -277.26122311502695, 16.175067308358848, -1066.1332803685218, -0.01600000075995922, -0.01600000075995922, 0.9760000463575125, 0.0, 0.0, 0.0, 0.0, 0.0, 1.7400577251777875E9, 0.0, 2025-02-20 13:22:05.177
64.0, -255.83346631890163, -445.00695582758635, 12.977452846243978, -1307.5681318580173, -0.01600000075995922, -0.01600000075995922, 0.9760000463575125, 0.0, 0.0, 0.0, 0.0, 0.0, 1.7400577251778371E9, 0.0, 2025-02-20 13:22:05.177
65.0, -435.3037853925489, -608.3919651918113, 12.027518257498741, -1373.6671236748807, -0.01600000075995922, -0.01600000075995922, 0.9760000463575125, 0.0, 0.0, 0.0, 0.0, 0.0, 1.7400577251784644E9, 0.0, 2025-02-20 13:22:05.178
65.0, -241.38623279007152, -449.3228003764525, 6.84401691891253, -1137.337235624902, -0.01600000075995922, -0.01600000075995922, 0.9760000463575125, 0.0, 0.0, 0.0, 0.0, 0.0, 1.7400577251785064E9, 0.0, 2025-02-20 13:22:05.178
66.0, -56.02183138625696, -271.55413578264415, 11.178560967557132, -1072.4798905933276, -0.01600000075995922, -0.01600000075995922, 0.9760000463575125, 0.0, 0.0, 0.0, 0.0, 0.0, 1.740057725206479E9, 0.0, 2025-02-20 13:22:05.206
66.0, -265.5459865038283, -443.04350835084915, 16.792150801047683, -1306.7790129673667, -0.01600000075995922, -0.01600000075995922, 0.9760000463575125, 0.0, 0.0, 0.0, 0.0, 0.0, 1.7400577252066193E9, 0.0, 2025-02-20 13:22:05.206
67.0, -433.1084641185589, -612.0645469482988, 13.235505943186581, -1368.9099709312432, -0.01600000075995922, -0.01600000075995922, 0.9760000463575125, 0.0, 0.0, 0.0, 0.0, 0.0, 1.740057725207029E9, 0.0, 2025-02-20 13:22:05.207
67.0, -234.32904157368466, -443.5820539444685, 7.711673708632588, -1142.8461082596332, -0.01600000075995922, -0.01600000075995922, 0.9760000463575125, 0.0, 0.0, 0.0, 0.0, 0.0, 1.7400577252070675E9, 0.0, 2025-02-20 13:22:05.207
68.0, -39.57749128108844, -265.73485145159066, 9.181454391218722, -1071.6720722028986, -0.01600000075995922, -0.01600000075995922, 0.9760000463575125, 0.0, 0.0, 0.0, 0.0, 0.0, 1.7400577252365828E9, 0.0, 2025-02-20 13:22:05.236
68.0, -240.21938400389627, -438.8024618010968, 17.35687569435686, -1305.0810983874835, -0.01600000075995922, -0.01600000075995922, 0.9760000463575125, 0.0, 0.0, 0.0, 0.0, 0.0, 1.7400577252366576E9, 0.0, 2025-02-20 13:22:05.236
69.0, -428.7066018707119, -615.2397220106795, 9.69008078519255, -1366.5388743593358, -0.01600000075995922, -0.01600000075995922, 0.9760000463575125, 0.0, 0.0, 0.0, 0.0, 0.0, 1.7400577252368765E9, 0.0, 2025-02-20 13:22:05.236
69.0, -222.25290461676195, -450.5008688624948, 6.253112725913525, -1133.9189670654014, -0.01600000075995922, -0.01600000075995922, 0.9760000463575125, 0.0, 0.0, 0.0, 0.0, 0.0, 1.7400577252369056E9, 0.0, 2025-02-20 13:22:05.236
70.0, -44.4842400229536, -274.44881834834814, 13.415021141059697, -1073.7551964782178, -0.01600000075995922, -0.01600000075995922, 0.9760000463575125, 0.0, 0.0, 0.0, 0.0, 0.0, 1.7400577252375364E9, 0.0, 2025-02-20 13:22:05.237
70.0, -239.78929550899193, -441.0277022747323, 10.520338575355709, -1308.0505789523013, -0.01600000075995922, -0.01600000075995922, 0.9760000463575125, 0.0, 0.0, 0.0, 0.0, 0.0, 1.7400577252375824E9, 0.0, 2025-02-20 13:22:05.237
71.0, -424.89938371581957, -619.4658089606091, 11.040184669196606, -1373.0313406824134, -0.01600000075995922, -0.01600000075995922, 0.9760000463575125, 0.0, 0.0, 0.0, 0.0, 0.0, 1.740057725238994E9, 0.0, 2025-02-20 13:22:05.238
71.0, -224.85213508596644, -452.838306334801, 10.737252772785723, -1138.7733572078869, -0.01600000075995922, -0.01600000075995922, 0.9760000463575125, 0.0, 0.0, 0.0, 0.0, 0.0, 1.74005772523904E9, 0.0, 2025-02-20 13:22:05.239
72.0, -32.632497063372284, -269.0895417118445, 12.554844151251018, -1079.9297713050619, 0.0, -0.01600000075995922, 0.9760000463575125, 0.0, 0.0, 0.0, 0.0, 0.0, 1.7400577252666948E9, 0.0, 2025-02-20 13:22:05.266
72.0, -244.15001885732636, -446.37201931141317, 12.85029624775052, -1309.5427990346216, 0.0, -0.01600000075995922, 0.9760000463575125, 0.0, 0.0, 0.0, 0.0, 0.0, 1.7400577252672305E9, 0.0, 2025-02-20 13:22:05.267
73.0, -431.0290797431953, -616.1372980000451, 10.426841076463461, -1368.5845996350981, 0.0, -0.01600000075995922, 0.9760000463575125, 0.0, 0.0, 0.0, 0.0, 0.0, 1.740057725267276E9, 0.0, 2025-02-20 13:22:05.267
73.0, -228.85382803855464, -450.12687886692584, 10.45302037615329, -1132.6661005802453, 0.0, -0.01600000075995922, 0.9760000463575125, 0.0, 0.0, 0.0, 0.0, 0.0, 1.7400577252673793E9, 0.0, 2025-02-20 13:22:05.267
74.0, -32.02289337059483, -272.59756787028164, 12.618422450497746, -1072.0198828987777, 0.0, -0.01600000075995922, 0.9760000463575125, 0.0, 0.0, 0.0, 0.0, 0.0, 1.7400577252983463E9, 0.0, 2025-02-20 13:22:05.298
74.0, -243.48057676525787, -446.3308804119006, 17.858022288419306, -1311.6408829097636, 0.0, -0.01600000075995922, 0.9760000463575125, 0.0, 0.0, 0.0, 0.0, 0.0, 1.7400577252984717E9, 0.0, 2025-02-20 13:22:05.298
75.0, -432.76813322259113, -613.8073403276503, 10.703593673184514, -1370.8808982078917, 0.0, -0.01600000075995922, 0.9760000463575125, 0.0, 0.0, 0.0, 0.0, 0.0, 1.7400577252991936E9, 0.0, 2025-02-20 13:22:05.299
75.0, -232.15615969942883, -446.18876421358436, 8.702747196890414, -1133.1373279746622, 0.0, -0.01600000075995922, 0.9760000463575125, 0.0, 0.0, 0.0, 0.0, 0.0, 1.7400577252996292E9, 0.0, 2025-02-20 13:22:05.299
76.0, -36.94460171228275, -267.44024583138525, 14.686587125994265, -1073.740236878395, 0.0, -0.01600000075995922, 0.9760000463575125, 0.0, 0.0, 0.0, 0.0, 0.0, 1.740057725299858E9, 0.0, 2025-02-20 13:22:05.299
76.0, -244.93165794806555, -434.3183217542246, 16.332143106497824, -1310.2272007265128, 0.0, -0.01600000075995922, 0.9760000463575125, 0.0, 0.0, 0.0, 0.0, 0.0, 1.740057725299974E9, 0.0, 2025-02-20 13:22:05.299
77.0, -435.21402779361233, -614.5515804188326, 13.811450536362827, -1372.2908404911868, 0.0, -0.01600000075995922, 0.9760000463575125, 0.0, 0.0, 0.0, 0.0, 0.0, 1.7400577253004048E9, 0.0, 2025-02-20 13:22:05.300
77.0, -233.7605767804198, -448.33920668810606, 7.315244313329458, -1134.453772759065, 0.0, -0.01600000075995922, 0.9760000463575125, 0.0, 0.0, 0.0, 0.0, 0.0, 1.740057725300449E9, 0.0, 2025-02-20 13:22:05.300
78.0, -42.606810245197266, -262.7578910868615, 12.835336647927761, -1077.9476243285462, 0.0, -0.01600000075995922, 0.9760000463575125, 0.0, 0.0, 0.0, 0.0, 0.0, 1.7400577253267243E9, 0.0, 2025-02-20 13:22:05.326
78.0, -249.83466678997502, -428.9814845174551, 16.025471310131252, -1307.2390206619166, 0.0, -0.01600000075995922, 0.9760000463575125, 0.0, 0.0, 0.0, 0.0, 0.0, 1.7400577253268216E9, 0.0, 2025-02-20 13:22:05.326
79.0, -439.4849935430102, -613.919537326321, 14.649188126437366, -1368.1657308400609, 0.0, -0.01600000075995922, 0.9760000463575125, 0.0, 0.0, 0.0, 0.0, 0.0, 1.7400577253271208E9, 0.0, 2025-02-20 13:22:05.327
79.0, -229.66912622889504, -444.8311805296689, 7.3040246134623885, -1132.5539035815746, 0.0, -0.01600000075995922, 0.9760000463575125, 0.0, 0.0, 0.0, 0.0, 0.0, 1.7400577253272908E9, 0.0, 2025-02-20 13:22:05.327
80.0, -40.02627927577123, -267.48512463085353, 12.427687552757561, -1080.8647462939844, 0.0, -0.01600000075995922, 0.9920000471174717, 0.0, 0.0, 0.0, 0.0, 0.0, 1.7400577253566675E9, 0.0, 2025-02-20 13:22:05.356
80.0, -239.79303540894762, -430.23061110265553, 17.024024598300457, -1315.5266389637254, 0.0, -0.01600000075995922, 0.9920000471174717, 0.0, 0.0, 0.0, 0.0, 0.0, 1.740057725356717E9, 0.0, 2025-02-20 13:22:05.356
81.0, -429.8061324576847, -614.8619921151549, 11.948980358429253, -1369.8112868205644, 0.0, -0.01600000075995922, 0.9920000471174717, 0.0, 0.0, 0.0, 0.0, 0.0, 1.7400577253569915E9, 0.0, 2025-02-20 13:22:05.356
81.0, -228.54341634223238, -450.209156665951, 4.805771443061531, -1134.9287400534377, 0.0, -0.01600000075995922, 0.9920000471174717, 0.0, 0.0, 0.0, 0.0, 0.0, 1.7400577253570523E9, 0.0, 2025-02-20 13:22:05.357
82.0, -29.857491296250373, -258.5280642369762, 15.243832219392061, -1080.7862083949149, 0.0, -0.01600000075995922, 0.9920000471174717, 0.0, 0.0, 0.0, 0.0, 0.0, 1.7400577253576283E9, 0.0, 2025-02-20 13:22:05.357
82.0, -232.45161179592833, -428.41301972419024, 11.631088862195611, -1311.2556732143275, 0.0, -0.01600000075995922, 0.9920000471174717, 0.0, 0.0, 0.0, 0.0, 0.0, 1.7400577253576834E9, 0.0, 2025-02-20 13:22:05.357
83.0, -421.97104205051437, -609.1661244826391, 14.46967292856425, -1369.9795823185705, 0.0, -0.01600000075995922, 0.9920000471174717, 0.0, 0.0, 0.0, 0.0, 0.0, 1.7400577253583977E9, 0.0, 2025-02-20 13:22:05.358
83.0, -227.37282765610144, -458.5453936671838, 10.774651772342622, -1128.8439228255302, 0.0, -0.01600000075995922, 0.9920000471174717, 0.0, 0.0, 0.0, 0.0, 0.0, 1.7400577253584483E9, 0.0, 2025-02-20 13:22:05.358
84.0, -32.10517116962001, -267.4963443307206, 8.205340502783656, -1080.1354658026248, 0.0, -0.01600000075995922, 0.9920000471174717, 0.0, 0.0, 0.0, 0.0, 0.0, 1.7400577253866813E9, 0.0, 2025-02-20 13:22:05.386
84.0, -226.48647136660293, -435.9937969343737, 10.183747579343617, -1315.4032222651877, 0.0, -0.01600000075995922, 0.9920000471174717, 0.0, 0.0, 0.0, 0.0, 0.0, 1.7400577253867571E9, 0.0, 2025-02-20 13:22:05.386
85.0, -429.95198855595663, -622.7457012217492, 11.066363968886435, -1375.955942447763, 0.0, -0.01600000075995922, 0.9920000471174717, 0.0, 0.0, 0.0, 0.0, 0.0, 1.7400577253871655E9, 0.0, 2025-02-20 13:22:05.387
85.0, -231.74477070430294, -459.0428003612906, 9.443247388117015, -1142.9545653583482, 0.0, -0.01600000075995922, 0.9920000471174717, 0.0, 0.0, 0.0, 0.0, 0.0, 1.7400577253872151E9, 0.0, 2025-02-20 13:22:05.387
86.0, -22.79282027995214, -271.6925120810047, 11.533851463347673, -1082.9478705693036, 0.0, -0.01600000075995922, 0.9920000471174717, 0.0, 0.0, 0.0, 0.0, 0.0, 1.7400577254169881E9, 0.0, 2025-02-20 13:22:05.416
86.0, -232.10754100000486, -433.2711497666314, 16.96044629905373, -1318.5148190283217, 0.0, -0.01600000075995922, 0.9920000471174717, 0.0, 0.0, 0.0, 0.0, 0.0, 1.7400577254171913E9, 0.0, 2025-02-20 13:22:05.417
87.0, -434.61564380070195, -621.8219459326938, 11.975159658119082, -1371.456842801068, 0.0, -0.01600000075995922, 0.9920000471174717, 0.0, 0.0, 0.0, 0.0, 0.0, 1.7400577254173148E9, 0.0, 2025-02-20 13:22:05.417
87.0, -235.832481355872, -460.2956668464467, 7.685494408942759, -1134.670686956495, 0.0, -0.01600000075995922, 0.9920000471174717, 0.0, 0.0, 0.0, 0.0, 0.0, 1.7400577254174113E9, 0.0, 2025-02-20 13:22:05.417
88.0, -28.297953014727682, -270.0132970008999, 13.190627143718302, -1081.8146808827296, 0.0, -0.01600000075995922, 0.9920000471174717, 0.0, 0.0, 0.0, 0.0, 0.0, 1.7400577254176376E9, 0.0, 2025-02-20 13:22:05.417
88.0, -228.99220433691517, -441.75324286613613, 16.47051940485835, -1313.3799363891594, 0.0, -0.01600000075995922, 0.9920000471174717, 0.0, 0.0, 0.0, 0.0, 0.0, 1.7400577254178271E9, 0.0, 2025-02-20 13:22:05.417
89.0, -434.6044241008349, -623.5348201123998, 10.557737574912608, -1371.2361887036823, 0.0, -0.01600000075995922, 0.9920000471174717, 0.0, 0.0, 0.0, 0.0, 0.0, 1.7400577254184268E9, 0.0, 2025-02-20 13:22:05.418
89.0, -235.73524395702407, -459.2634544586763, 6.44384762365371, -1130.9906254000962, 0.0, -0.01600000075995922, 0.9920000471174717, 0.0, 0.0, 0.0, 0.0, 0.0, 1.740057725418557E9, 0.0, 2025-02-20 13:22:05.418
90.0, -40.40026927134022, -268.9436856135726, 12.768018448725343, -1087.5479475148022, 0.0, -0.01600000075995922, 0.9920000471174717, 0.0, 0.0, 0.0, 0.0, 0.0, 1.7400577254470162E9, 0.0, 2025-02-20 13:22:05.447
90.0, -234.93116546655074, -434.89426634740084, 14.4883724283427, -1315.3433838658966, 0.0, -0.01600000075995922, 0.9920000471174717, 0.0, 0.0, 0.0, 0.0, 0.0, 1.7400577254471345E9, 0.0, 2025-02-20 13:22:05.447
91.0, -438.6360362530686, -626.2873864797875, 13.366402441635728, -1376.1878162450157, 0.0, 0.0, 0.9920000471174717, 0.0, 0.0, 0.0, 0.0, 0.0, 1.7400577254476788E9, 0.0, 2025-02-20 13:22:05.447
91.0, -242.96073067141697, -459.64118435420096, 7.9472874058410525, -1135.7253387439996, 0.0, 0.0, 0.9920000471174717, 0.0, 0.0, 0.0, 0.0, 0.0, 1.7400577254477534E9, 0.0, 2025-02-20 13:22:05.447
92.0, -42.58063094550744, -268.4313193196431, 13.721692937426269, -1081.4556504869834, -0.01600000075995922, 0.0, 0.9920000471174717, 0.0, 0.0, 0.0, 0.0, 0.0, 1.7400577254764345E9, 0.0, 2025-02-20 13:22:05.476
92.0, -236.7599765448831, -435.00272344611585, 14.750165425240993, -1310.417935624253, -0.01600000075995922, 0.0, 0.9920000471174717, 0.0, 0.0, 0.0, 0.0, 0.0, 1.7400577254764955E9, 0.0, 2025-02-20 13:22:05.476
93.0, -437.7721193633042, -617.8314726799726, 10.213666778989136, -1365.873172167223, -0.01600000075995922, 0.0, 0.9920000471174717, 0.0, 0.0, 0.0, 0.0, 0.0, 1.740057725477027E9, 0.0, 2025-02-20 13:22:05.477
93.0, -243.64139246335253, -458.27612087037414, 9.824717183597386, -1131.9742190884426, -0.01600000075995922, 0.0, 0.9920000471174717, 0.0, 0.0, 0.0, 0.0, 0.0, 1.7400577254770775E9, 0.0, 2025-02-20 13:22:05.477
94.0, -29.24040780356154, -269.15312001109123, 12.05369755718857, -1076.4741037460044, -0.01600000075995922, 0.0, 0.9920000471174717, 0.0, 0.0, 0.0, 0.0, 0.0, 1.7400577254775696E9, 0.0, 2025-02-20 13:22:05.477
94.0, -229.62424742942676, -426.5019308468327, 14.738945725373924, -1314.7038609734736, -0.01600000075995922, 0.0, 0.9920000471174717, 0.0, 0.0, 0.0, 0.0, 0.0, 1.7400577254776158E9, 0.0, 2025-02-20 13:22:05.477
95.0, -438.31440485687926, -625.775020185858, 12.44638705253601, -1367.6982433455996, -0.01600000075995922, 0.0, 0.9920000471174717, 0.0, 0.0, 0.0, 0.0, 0.0, 1.7400577254784117E9, 0.0, 2025-02-20 13:22:05.478
95.0, -240.1371062048711, -462.4012305215001, 7.363863012753427, -1129.932233712636, -0.01600000075995922, 0.0, 0.9920000471174717, 0.0, 0.0, 0.0, 0.0, 0.0, 1.740057725478451E9, 0.0, 2025-02-20 13:22:05.478
96.0, -27.10118502890691, -269.4710115073249, 11.870442459359765, -1075.6662853555754, -0.01600000075995922, 0.0, 0.9920000471174717, 0.0, 0.0, 0.0, 0.0, 0.0, 1.7400577255067189E9, 0.0, 2025-02-20 13:22:05.506
96.0, -236.25135015090927, -428.8655476188287, 12.738099249079823, -1304.0601056995802, -0.01600000075995922, 0.0, 0.9920000471174717, 0.0, 0.0, 0.0, 0.0, 0.0, 1.7400577255067892E9, 0.0, 2025-02-20 13:22:05.506
97.0, -448.4457938368432, -628.9651548480615, 12.637121950276196, -1352.435711626429, -0.01600000075995922, 0.0, 0.9920000471174717, 0.0, 0.0, 0.0, 0.0, 0.0, 1.7400577255068974E9, 0.0, 2025-02-20 13:22:05.506
97.0, -249.5429545934312, -465.20615548826754, 11.466533264145255, -1125.0180051708594, -0.01600000075995922, 0.0, 0.9920000471174717, 0.0, 0.0, 0.0, 0.0, 0.0, 1.74005772550693E9, 0.0, 2025-02-20 13:22:05.506
98.0, -30.085625193547457, -273.80929545592517, 14.551950727589428, -1074.6265931678936, -0.01600000075995922, 0.0, 0.9920000471174717, 0.0, 0.0, 0.0, 0.0, 0.0, 1.74005772553658E9, 0.0, 2025-02-20 13:22:05.536
98.0, -226.87916086195037, -430.4325657002628, 13.239245843142271, -1311.214534314815, -0.01600000075995922, 0.0, 0.9920000471174717, 0.0, 0.0, 0.0, 0.0, 0.0, 1.740057725536662E9, 0.0, 2025-02-20 13:22:05.536
99.0, -436.69128827610984, -630.4199759308249, 17.37557519413531, -1361.1833376227878, -0.01600000075995922, 0.0, 0.9920000471174717, 0.0, 0.0, 0.0, 0.0, 0.0, 1.740057725536872E9, 0.0, 2025-02-20 13:22:05.536
99.0, -239.75189650943503, -465.7858399813995, 13.220546343363822, -1135.624361445196, -0.01600000075995922, 0.0, 0.9920000471174717, 0.0, 0.0, 0.0, 0.0, 0.0, 1.740057725536924E9, 0.0, 2025-02-20 13:22:05.536
100.0, -28.858938008081168, -277.1752054160461, 13.553397439420223, -1083.882845558226, -0.01600000075995922, 0.0, 0.9920000471174717, 0.0, 0.0, 0.0, 0.0, 0.0, 1.7400577255374248E9, 0.0, 2025-02-20 13:22:05.537
100.0, -226.95395886106417, -432.0930812805891, 14.585609827190638, -1307.691548556555, -0.01600000075995922, 0.0, 0.9920000471174717, 0.0, 0.0, 0.0, 0.0, 0.0, 1.740057725537469E9, 0.0, 2025-02-20 13:22:05.537
0.0, -440.6873713787645, -631.1698258719407, 10.705463623162359, 110.5364830903709, -0.01600000075995922, 0.0, 0.9920000471174717, 0.0, 0.0, 0.0, 0.0, 0.0, 1.7400577255383203E9, 0.0, 2025-02-20 13:22:05.538
1.0, -239.28253906499594, -467.62774070957676, 10.29781452799216, 337.0005150572397, -0.01600000075995922, 0.0, 0.9920000471174717, 0.0, 0.0, 0.0, 0.0, 0.0, 1.7400577255669663E9, 0.0, 2025-02-20 13:22:05.566
1.0, -31.213205030187964, -267.0008075865917, 8.412904950324446, 388.3119424493052, -0.01600000075995922, 0.0, 0.9920000471174717, 0.0, 0.0, 0.0, 0.0, 0.0, 1.7400577255670972E9, 0.0, 2025-02-20 13:22:05.567
2.0, -226.7351747136563, -426.4776214971207, 14.523901477921754, 157.86865692958236, -0.01600000075995922, 0.0, 0.9920000471174717, 0.0, 0.0, 0.0, 0.0, 0.0, 1.7400577255671928E9, 0.0, 2025-02-20 13:22:05.567
2.0, -447.3294337000698, -625.2907031415962, 10.208056929055601, 102.95944578014314, -0.01600000075995922, 0.0, 0.9920000471174717, 0.0, 0.0, 0.0, 0.0, 0.0, 1.7400577255672498E9, 0.0, 2025-02-20 13:22:05.567
3.0, -252.57414350751787, -471.5770750627853, 6.430757973808795, 342.1092183967121, -0.01600000075995922, 0.0, 0.9920000471174717, 0.0, 0.0, 0.0, 0.0, 0.0, 1.7400577255678318E9, 0.0, 2025-02-20 13:22:05.567
3.0, -35.40189298056066, -266.6193377911113, 12.627772200386971, 385.10684818727896, -0.01600000075995922, 0.0, 0.9920000471174717, 0.0, 0.0, 0.0, 0.0, 0.0, 1.7400577255678794E9, 0.0, 2025-02-20 13:22:05.567
4.0, -239.19652136601508, -423.6614768304862, 17.5457406421192, 150.54593281634152, -0.01600000075995922, 0.0, 0.9920000471174717, 0.0, 0.0, 0.0, 0.0, 0.0, 1.7400577255963075E9, 0.0, 2025-02-20 13:22:05.596
4.0, -451.6265787491575, -632.710664653685, 12.26500190468505, 104.74337805900723, -0.01600000075995922, 0.0, 0.9920000471174717, 0.0, 0.0, 0.0, 0.0, 0.0, 1.7400577255963657E9, 0.0, 2025-02-20 13:22:05.596
5.0, -255.18459367658943, -456.14998774556443, 9.44885723805055, 328.0322349634953, -0.01600000075995922, 0.0, 0.9920000471174717, 0.0, 0.0, 0.0, 0.0, 0.0, 1.740057725596747E9, 0.0, 2025-02-20 13:22:05.596
5.0, -28.815929158590734, -252.57227355754003, 16.135798358824104, 378.7639778624289, -0.01600000075995922, 0.0, 0.9920000471174717, 0.0, 0.0, 0.0, 0.0, 0.0, 1.7400577255969148E9, 0.0, 2025-02-20 13:22:05.596
6.0, -229.42790268175304, -419.8879177751951, 16.33775295643136, 149.7717735255137, -0.01600000075995922, 0.0, 0.9920000471174717, 0.0, 0.0, 0.0, 0.0, 0.0, 1.7400577255976162E9, 0.0, 2025-02-20 13:22:05.597
6.0, -443.15196544956416, -621.4610455869697, 11.07571371877566, 100.0086647151038, -0.01600000075995922, 0.0, 0.9920000471174717, 0.0, 0.0, 0.0, 0.0, 0.0, 1.7400577255976622E9, 0.0, 2025-02-20 13:22:05.597
7.0, -247.44300076831132, -469.11622089194134, 8.68591764708981, 328.6904573556967, -0.01600000075995922, 0.0, 0.9920000471174717, 0.0, 0.0, 0.0, 0.0, 0.0, 1.7400577256266477E9, 0.0, 2025-02-20 13:22:05.626
7.0, -24.301869912073016, -256.2485952139832, 14.69593687588349, 376.7182525866665, -0.01600000075995922, 0.0, 0.9920000471174717, 0.0, 0.0, 0.0, 0.0, 0.0, 1.7400577256267047E9, 0.0, 2025-02-20 13:22:05.626
8.0, -216.14751793909818, -416.34997241711244, 15.567333565559238, 139.31875314936042, -0.01600000075995922, 0.0, 0.9920000471174717, 0.0, 0.0, 0.0, 0.0, 0.0, 1.7400577256270278E9, 0.0, 2025-02-20 13:22:05.627
8.0, -440.7584294779226, -620.335335700307, 14.112512482795864, 97.10650234948844, -0.01600000075995922, 0.0, 0.9920000471174717, 0.0, 0.0, 0.0, 0.0, 0.0, 1.7400577256270945E9, 0.0, 2025-02-20 13:22:05.627
9.0, -244.08457060810179, -461.33348908415064, 14.146171582397074, 329.15794485015795, -0.01600000075995922, 0.0, 0.9920000471174717, 0.0, 0.0, 0.0, 0.0, 0.0, 1.7400577256276207E9, 0.0, 2025-02-20 13:22:05.627
9.0, -24.245771412737668, -252.93130395328626, 15.608472465071827, 380.8583218376152, -0.01600000075995922, 0.0, 0.9920000471174717, 0.0, 0.0, 0.0, 0.0, 0.0, 1.7400577256276777E9, 0.0, 2025-02-20 13:22:05.627
10.0, -220.45214278809726, -417.45698280399665, 13.278514792677015, 151.70904170256108, -0.01600000075995922, 0.0, 0.9920000471174717, 0.0, 0.0, 0.0, 0.0, 0.0, 1.7400577256565852E9, 0.0, 2025-02-20 13:22:05.656
10.0, -436.78291582502425, -624.3183291531168, 10.439930726308376, 106.26925724092871, -0.01600000075995922, 0.0, 0.9920000471174717, 0.0, 0.0, 0.0, 0.0, 0.0, 1.740057725656688E9, 0.0, 2025-02-20 13:22:05.656
11.0, -241.39932243991643, -464.2431312496774, 8.345586751122028, 338.6273715379648, -0.01600000075995922, 0.0, 0.9920000471174717, 0.0, 0.0, 0.0, 0.0, 0.0, 1.7400577256568537E9, 0.0, 2025-02-20 13:22:05.656
11.0, -22.50297803338617, -264.65215041441843, 12.171504405792803, 381.28467043256387, -0.01600000075995922, 0.0, 0.9920000471174717, 0.0, 0.0, 0.0, 0.0, 0.0, 1.740057725656916E9, 0.0, 2025-02-20 13:22:05.656
12.0, -219.56204659864306, -422.8760978397913, 13.678684087935835, 152.86467078886926, 0.0, 0.0, 0.9920000471174717, 0.0, 0.0, 0.0, 0.0, 0.0, 1.740057725657946E9, 0.0, 2025-02-20 13:22:05.657
12.0, -439.97305048722774, -625.2308647423051, 14.157391282264143, 111.6472333772108, 0.0, 0.0, 0.9920000471174717, 0.0, 0.0, 0.0, 0.0, 0.0, 1.7400577256580987E9, 0.0, 2025-02-20 13:22:05.658
13.0, -244.20050750672817, -467.7661170079373, 8.738276246469468, 339.1472176318057, 0.0, 0.0, 0.9920000471174717, 0.0, 0.0, 0.0, 0.0, 0.0, 1.740057725686321E9, 0.0, 2025-02-20 13:22:05.686
13.0, -17.917860687710345, -257.4304035999812, 11.244009216781706, 383.6520271045156, 0.0, 0.0, 0.9920000471174717, 0.0, 0.0, 0.0, 0.0, 0.0, 1.7400577256863823E9, 0.0, 2025-02-20 13:22:05.686
14.0, -217.20216972660273, -418.3994375928305, 19.50170831894502, 149.71567502617836, 0.0, 0.0, 0.9920000471174717, 0.0, 0.0, 0.0, 0.0, 0.0, 1.7400577256867323E9, 0.0, 2025-02-20 13:22:05.686
14.0, -426.2363979499787, -628.1554665076546, 10.821400521788746, 102.07682939060032, 0.0, 0.0, 0.9920000471174717, 0.0, 0.0, 0.0, 0.0, 0.0, 1.7400577256867824E9, 0.0, 2025-02-20 13:22:05.686
15.0, -246.39208888076246, -475.7545433132909, 7.694844158831984, 340.22804871900007, 0.0, 0.0, 0.9920000471174717, 0.0, 0.0, 0.0, 0.0, 0.0, 1.7400577256876333E9, 0.0, 2025-02-20 13:22:05.687
15.0, -29.283416653051972, -257.1760904029943, 14.370565579738468, 378.1693337694742, 0.0, 0.0, 0.9920000471174717, 0.0, 0.0, 0.0, 0.0, 0.0, 1.7400577256877007E9, 0.0, 2025-02-20 13:22:05.687
16.0, -218.5522736106068, -422.34129214612767, 9.46007693791762, 150.89748341217637, 0.0, 0.0, 0.9920000471174717, 0.0, 0.0, 0.0, 0.0, 0.0, 1.7400577257166307E9, 0.0, 2025-02-20 13:22:05.716
16.0, -444.4347511343658, -635.5043699205853, 11.977029608096927, 109.2761368053034, 0.0, 0.0, 0.9920000471174717, 0.0, 0.0, 0.0, 0.0, 0.0, 1.7400577257166746E9, 0.0, 2025-02-20 13:22:05.716
17.0, -257.36495535075665, -466.8685410185717, 7.672404759097844, 334.9921887810342, 0.0, 0.0, 0.9920000471174717, 0.0, 0.0, 0.0, 0.0, 0.0, 1.7400577257169085E9, 0.0, 2025-02-20 13:22:05.716
17.0, -30.109934543259442, -259.24051517853513, 10.66058482369408, 386.1278408751823, 0.0, 0.0, 0.9920000471174717, 0.0, 0.0, 0.0, 0.0, 0.0, 1.7400577257169368E9, 0.0, 2025-02-20 13:22:05.716
18.0, -220.2202689908445, -423.2837469349615, 15.013828372117132, 153.10402438603342, 0.0, 0.0, 0.9920000471174717, 0.0, 0.0, 0.0, 0.0, 0.0, 1.7400577257176604E9, 0.0, 2025-02-20 13:22:05.717
18.0, -450.908517957665, -636.1214534132741, 11.954590208362788, 113.44612525589764, 0.0, 0.0, 0.9920000471174717, 0.0, 0.0, 0.0, 0.0, 0.0, 1.7400577257176843E9, 0.0, 2025-02-20 13:22:05.717
19.0, -264.0593762714416, -480.2873020595871, 9.587233536411077, 340.57211951492354, 0.0, 0.0, 0.9920000471174717, 0.0, 0.0, 0.0, 0.0, 0.0, 1.7400577257464051E9, 0.0, 2025-02-20 13:22:05.746
19.0, -24.54122350923717, -256.92925700591877, 12.223863005172461, 380.4955515419133, 0.0, 0.0, 0.9920000471174717, 0.0, 0.0, 0.0, 0.0, 0.0, 1.740057725746549E9, 0.0, 2025-02-20 13:22:05.746
20.0, -216.27093463763595, -415.93484352203086, 17.246548645664006, 148.15613674465567, 0.0, 0.0, 1.008000047877431, 0.0, 0.0, 0.0, 0.0, 0.0, 1.740057725746839E9, 0.0, 2025-02-20 13:22:05.746
20.0, -450.75892195943743, -632.8752202517353, 12.627772200386971, 107.06585593149066, 0.0, 0.0, 1.008000047877431, 0.0, 0.0, 0.0, 0.0, 0.0, 1.7400577257468877E9, 0.0, 2025-02-20 13:22:05.746
21.0, -266.5800688415766, -472.2427772548981, 9.987402831669897, 343.5565596795641, 0.0, -0.01600000075995922, 1.008000047877431, 0.0, 0.0, 0.0, 0.0, 0.0, 1.7400577257483225E9, 0.0, 2025-02-20 13:22:05.748
21.0, -25.8277490939945, -254.38238513609394, 12.605332800652832, 381.0527966353111, 0.0, -0.01600000075995922, 1.008000047877431, 0.0, 0.0, 0.0, 0.0, 0.0, 1.7400577257483673E9, 0.0, 2025-02-20 13:22:05.748
22.0, -214.6552978567779, -420.20206937147304, 13.08030009502545, 158.90834911726415, 0.0, -0.01600000075995922, 1.008000047877431, 0.0, 0.0, 0.0, 0.0, 0.0, 1.740057725776424E9, 0.0, 2025-02-20 13:22:05.776
22.0, -451.2189296539873, -636.3795065102167, 14.191050381865352, 119.5758212832734, 0.0, -0.01600000075995922, 1.008000047877431, 0.0, 0.0, 0.0, 0.0, 0.0, 1.740057725776505E9, 0.0, 2025-02-20 13:22:05.776
23.0, -258.7075794348493, -481.88797924062237, 13.772181586828083, 347.43109603365883, 0.0, -0.01600000075995922, 1.008000047877431, 0.0, 0.0, 0.0, 0.0, 0.0, 1.7400577257770305E9, 0.0, 2025-02-20 13:22:05.777
23.0, -20.17302036099136, -263.9864482223056, 15.735629063565284, 390.11457422794774, 0.0, -0.01600000075995922, 1.008000047877431, 0.0, 0.0, 0.0, 0.0, 0.0, 1.7400577257770731E9, 0.0, 2025-02-20 13:22:05.777
24.0, -210.73962260317057, -424.4767750208266, 12.021908407565206, 153.4854941815138, 0.0, -0.01600000075995922, 1.008000047877431, 0.0, 0.0, 0.0, 0.0, 0.0, 1.7400577257775939E9, 0.0, 2025-02-20 13:22:05.777
24.0, -449.9137045694515, -638.6720651830547, 12.466956502292305, 113.48726415541023, 0.0, -0.01600000075995922, 1.008000047877431, 0.0, 0.0, 0.0, 0.0, 0.0, 1.7400577257776303E9, 0.0, 2025-02-20 13:22:05.777
25.0, -250.823870328255, -483.82150751771405, 9.740569434594363, 336.97433575754985, 0.0, -0.01600000075995922, 1.008000047877431, 0.0, 0.0, 0.0, 0.0, 0.0, 1.7400577258064115E9, 0.0, 2025-02-20 13:22:05.806
25.0, -8.84860329516232, -261.82104614796117, 15.249442069325596, 372.14435494085774, 0.0, -0.01600000075995922, 1.008000047877431, 0.0, 0.0, 0.0, 0.0, 0.0, 1.740057725806576E9, 0.0, 2025-02-20 13:22:05.806
26.0, -202.18647140450776, -412.1500647668727, 18.847225826699287, 141.989041717723, 0.0, -0.01600000075995922, 1.008000047877431, 0.0, 0.0, 0.0, 0.0, 0.0, 1.7400577258069415E9, 0.0, 2025-02-20 13:22:05.806
26.0, -440.51907588075846, -641.4695103499107, 8.816814145538956, 111.24706408195198, 0.0, -0.01600000075995922, 1.008000047877431, 0.0, 0.0, 0.0, 0.0, 0.0, 1.7400577258069992E9, 0.0, 2025-02-20 13:22:05.806
27.0, -253.92424739152193, -482.71075723087415, 7.657445159275085, 339.75308142462745, 0.0, -0.01600000075995922, 1.008000047877431, 0.0, 0.0, 0.0, 0.0, 0.0, 1.7400577258077166E9, 0.0, 2025-02-20 13:22:05.807
27.0, -17.214759496040642, -261.5106344516389, 11.659138111863285, 384.70667889202014, 0.0, -0.01600000075995922, 1.008000047877431, 0.0, 0.0, 0.0, 0.0, 0.0, 1.740057725807763E9, 0.0, 2025-02-20 13:22:05.807
28.0, -213.5482874698937, -421.7092490536161, 12.074267006944865, 159.83210440631956, 0.0, -0.01600000075995922, 1.008000047877431, 0.0, 0.0, 0.0, 0.0, 0.0, 1.7400577258364203E9, 0.0, 2025-02-20 13:22:05.836
28.0, -445.34354682359844, -641.0469016549177, 8.734536346513778, 119.63939958252013, 0.0, -0.01600000075995922, 1.008000047877431, 0.0, 0.0, 0.0, 0.0, 0.0, 1.740057725836478E9, 0.0, 2025-02-20 13:22:05.836
29.0, -258.65896073542535, -487.46043017460033, 7.234836464282125, 347.2104419362731, 0.0, -0.01600000075995922, 1.008000047877431, 0.0, 0.0, 0.0, 0.0, 0.0, 1.7400577258369305E9, 0.0, 2025-02-20 13:22:05.836
29.0, -18.56860328000039, -266.90357018774375, 12.945663696620613, 389.37033413676545, 0.0, -0.01600000075995922, 1.008000047877431, 0.0, 0.0, 0.0, 0.0, 0.0, 1.7400577258369644E9, 0.0, 2025-02-20 13:22:05.836
30.0, -214.72261605598032, -423.2987065347843, 17.699076540302485, 162.36401667632163, 0.0, -0.01600000075995922, 0.9920000471174717, 0.0, 0.0, 0.0, 0.0, 0.0, 1.7400577258375835E9, 0.0, 2025-02-20 13:22:05.837
30.0, -445.2949281241745, -638.1596988891251, 14.041454383637756, 120.18168507609516, 0.0, -0.01600000075995922, 0.9920000471174717, 0.0, 0.0, 0.0, 0.0, 0.0, 1.7400577258376093E9, 0.0, 2025-02-20 13:22:05.837
31.0, -256.2691646637395, -488.6160592609085, 10.387572126928717, 350.4791144975461, 0.0, -0.01600000075995922, 0.9920000471174717, 0.0, 0.0, 0.0, 0.0, 0.0, 1.7400577258663774E9, 0.0, 2025-02-20 13:22:05.866
31.0, -19.76537126582116, -260.9159903586842, 15.421477467287332, 385.95954537717625, 0.0, -0.01600000075995922, 0.9920000471174717, 0.0, 0.0, 0.0, 0.0, 0.0, 1.7400577258666663E9, 0.0, 2025-02-20 13:22:05.866
32.0, -206.1021466581151, -422.2216153475456, 11.371165815275162, 155.2208077609539, 0.0, -0.01600000075995922, 0.9920000471174717, 0.0, 0.0, 0.0, 0.0, 0.0, 1.7400577258669183E9, 0.0, 2025-02-20 13:22:05.866
32.0, -448.5374213857576, -643.9004453211091, 11.543201213236898, 121.23633686359972, 0.0, -0.01600000075995922, 0.9920000471174717, 0.0, 0.0, 0.0, 0.0, 0.0, 1.740057725866973E9, 0.0, 2025-02-20 13:22:05.866
33.0, -255.32296997494996, -495.2543816822581, 8.742016146425158, 354.3349513518624, 0.0, -0.01600000075995922, 0.9920000471174717, 0.0, 0.0, 0.0, 0.0, 0.0, 1.7400577258678234E9, 0.0, 2025-02-20 13:22:05.867
33.0, -14.671627526171505, -265.60208500316367, 8.353066551033407, 389.70692513277754, 0.0, -0.01600000075995922, 0.9920000471174717, 0.0, 0.0, 0.0, 0.0, 0.0, 1.740057725867884E9, 0.0, 2025-02-20 13:22:05.867
34.0, -206.0198688590899, -417.46446260390803, 16.932397049386054, 158.64281622041017, 0.0, -0.01600000075995922, 0.9920000471174717, 0.0, 0.0, 0.0, 0.0, 0.0, 1.7400577258967555E9, 0.0, 2025-02-20 13:22:05.896
34.0, -444.71898353099823, -642.1613918417133, 15.847826062235981, 123.27084243949503, 0.0, -0.01600000075995922, 0.9920000471174717, 0.0, 0.0, 0.0, 0.0, 0.0, 1.7400577258968115E9, 0.0, 2025-02-20 13:22:05.896
35.0, -256.3776217624545, -488.08499346720055, 5.2526894877664745, 349.2299879123457, 0.0, -0.01600000075995922, 0.9920000471174717, 0.0, 0.0, 0.0, 0.0, 0.0, 1.740057725896954E9, 0.0, 2025-02-20 13:22:05.896
35.0, -14.690327025949955, -261.4096571528353, 12.369719103444368, 383.827802402433, 0.0, -0.01600000075995922, 0.9920000471174717, 0.0, 0.0, 0.0, 0.0, 0.0, 1.7400577258969908E9, 0.0, 2025-02-20 13:22:05.896
36.0, -199.95375113096088, -412.52779466239735, 14.983909172471613, 158.32866462413222, 0.0, -0.01600000075995922, 0.9920000471174717, 0.0, 0.0, 0.0, 0.0, 0.0, 1.7400577258976977E9, 0.0, 2025-02-20 13:22:05.897
36.0, 36.37987681897357, -642.7784753344022, 11.973289708141237, 126.26276240404695, 0.0, -0.01600000075995922, 0.9920000471174717, 0.0, 0.0, 0.0, 0.0, 0.0, 1.7400577258977623E9, 0.0, 2025-02-20 13:22:05.897
37.0, 230.14035362331197, -493.3358130049892, 9.85650633322075, 352.1059709782712, 0.0, -0.01600000075995922, 0.9920000471174717, 0.0, 0.0, 0.0, 0.0, 0.0, 1.740057725926448E9, 0.0, 2025-02-20 13:22:05.926
37.0, -6.657021921128035, -257.288287401665, 13.372012291569263, 381.7147589274682, 0.0, -0.01600000075995922, 0.9920000471174717, 0.0, 0.0, 0.0, 0.0, 0.0, 1.740057725926533E9, 0.0, 2025-02-20 13:22:05.926
38.0, -202.1341128051281, -414.2593683418818, 15.87400536192581, 147.72604824975133, 0.0, -0.01600000075995922, 0.9920000471174717, 0.0, 0.0, 0.0, 0.0, 0.0, 1.740057725926708E9, 0.0, 2025-02-20 13:22:05.926
38.0, 42.247779849451035, -640.972103655804, 10.567087324801832, 109.24995750561357, 0.0, -0.01600000075995922, 0.9920000471174717, 0.0, 0.0, 0.0, 0.0, 0.0, 1.7400577259267497E9, 0.0, 2025-02-20 13:22:05.926
39.0, 225.0914886831306, -492.23254251806065, 9.650811835657805, 340.23552851891145, 0.0, -0.01600000075995922, 0.9920000471174717, 0.0, 0.0, 0.0, 0.0, 0.0, 1.740057725928161E9, 0.0, 2025-02-20 13:22:05.928
39.0, -13.635675238445401, -255.1378449271433, 8.947710643988103, 377.3128966796212, 0.0, -0.01600000075995922, 0.9920000471174717, 0.0, 0.0, 0.0, 0.0, 0.0, 1.740057725928208E9, 0.0, 2025-02-20 13:22:05.928
40.0, -203.9479642836377, -406.4728966341354, 15.365378967951983, 146.23382816743106, 0.0, -0.01600000075995922, 0.9920000471174717, 0.0, 0.0, 0.0, 0.0, 0.0, 1.740057725957135E9, 0.0, 2025-02-20 13:22:05.957
40.0, 37.808518602047116, -633.5708416434936, 12.975582896266133, 113.47604445554316, 0.0, -0.01600000075995922, 0.9920000471174717, 0.0, 0.0, 0.0, 0.0, 0.0, 1.740057725957201E9, 0.0, 2025-02-20 13:22:05.957
41.0, 226.7557441634126, -493.2984140054323, 7.45175066171214, 339.68202332546934, 0.0, -0.01600000075995922, 0.9920000471174717, 0.0, 0.0, 0.0, 0.0, 0.0, 1.7400577259573822E9, 0.0, 2025-02-20 13:22:05.957
41.0, -10.946687170304358, -258.952542881947, 12.65021160012111, 382.0924888229929, 0.0, -0.01600000075995922, 0.9920000471174717, 0.0, 0.0, 0.0, 0.0, 0.0, 1.740057725957518E9, 0.0, 2025-02-20 13:22:05.957
42.0, -204.81188117340207, -409.5470943977125, 11.84987300960347, 149.7418543258682, 0.0, -0.01600000075995922, 0.9920000471174717, 0.0, 0.0, 0.0, 0.0, 0.0, 1.7400577259576025E9, 0.0, 2025-02-20 13:22:05.957
42.0, -447.33691349998116, -635.3061552229337, 14.759515175130218, 124.1347593292594, 0.0, -0.01600000075995922, 0.9920000471174717, 0.0, 0.0, 0.0, 0.0, 0.0, 1.7400577259576612E9, 0.0, 2025-02-20 13:22:05.957
43.0, -264.22393186949193, -485.75503579480574, 10.439930726308376, 346.6718963426538, 0.0, -0.01600000075995922, 0.9920000471174717, 0.0, 0.0, 0.0, 0.0, 0.0, 1.7400577259868984E9, 0.0, 2025-02-20 13:22:05.986
43.0, -497.5058014555834, -258.8553054830991, 11.412304714787751, 369.47406637249514, 0.0, -0.01600000075995922, 0.9920000471174717, 0.0, 0.0, 0.0, 0.0, 0.0, 1.7400577259869776E9, 0.0, 2025-02-20 13:22:05.986
44.0, -689.6693409788422, -407.6509651201777, 16.521008054260164, 141.0278874291107, 0.0, -0.01600000075995922, 0.9920000471174717, 0.0, 0.0, 0.0, 0.0, 0.0, 1.7400577259872136E9, 0.0, 2025-02-20 13:22:05.987
44.0, -449.12832557875663, -646.6717111882754, 11.374905715230852, 116.15381282381713, 0.0, -0.01600000075995922, 0.9920000471174717, 0.0, 0.0, 0.0, 0.0, 0.0, 1.7400577259874165E9, 0.0, 2025-02-20 13:22:05.987
45.0, -263.2440780811012, -491.23024932993576, 10.496029225643724, 341.64173090225086, 0.0, -0.01600000075995922, 0.9920000471174717, 0.0, 0.0, 0.0, 0.0, 0.0, 1.74005772598822E9, 0.0, 2025-02-20 13:22:05.988
45.0, -504.49193457281217, -260.7813539602794, 8.607379748020321, 374.62764851143584, 0.0, -0.01600000075995922, 0.9920000471174717, 0.0, 0.0, 0.0, 0.0, 0.0, 1.7400577259883094E9, 0.0, 2025-02-20 13:22:05.988
46.0, -698.1177749787457, -408.72057650750503, 17.298907245043665, 149.64835682697594, 0.0, -0.01600000075995922, 0.9920000471174717, 0.0, 0.0, 0.0, 0.0, 0.0, 1.7400577260171804E9, 0.0, 2025-02-20 13:22:06.017
46.0, -458.47059566807, -639.3976057744585, 13.701123487669975, 119.11207368876785, 0.0, -0.01600000075995922, 0.9920000471174717, 0.0, 0.0, 0.0, 0.0, 0.0, 1.7400577260172648E9, 0.0, 2025-02-20 13:22:06.017
47.0, -272.6013077702373, -490.8001608350314, 6.797268169466406, 349.23746771225706, 0.0, -0.01600000075995922, 0.9920000471174717, 0.0, 0.0, 0.0, 0.0, 0.0, 1.7400577260176952E9, 0.0, 2025-02-20 13:22:06.017
47.0, -507.98874103138223, -248.18163100956008, 13.615105788689107, 369.8143972684629, 0.0, -0.01600000075995922, 0.9920000471174717, 0.0, 0.0, 0.0, 0.0, 0.0, 1.7400577260178127E9, 0.0, 2025-02-20 13:22:06.017
48.0, -692.2274325485341, -403.85122676519677, 16.550927253905684, 152.4757211934775, 0.0, -0.01600000075995922, 0.9920000471174717, 0.0, 0.0, 0.0, 0.0, 0.0, 1.7400577260181475E9, 0.0, 2025-02-20 13:22:06.018
48.0, -451.0356745561585, -640.70657075895, 13.940477084834129, 118.22197749931365, 0.0, -0.01600000075995922, 0.9920000471174717, 0.0, 0.0, 0.0, 0.0, 0.0, 1.7400577260182397E9, 0.0, 2025-02-20 13:22:06.018
49.0, -272.1375601757318, -485.209010401275, 8.195990752894431, 355.1801687418483, 0.0, -0.01600000075995922, 0.9920000471174717, 0.0, 0.0, 0.0, 0.0, 0.0, 1.7400577260463257E9, 0.0, 2025-02-20 13:22:06.046
49.0, -500.5239007198252, -253.60822584526613, 11.431004214566201, 380.95181933650747, 0.0, -0.01600000075995922, 0.9920000471174717, 0.0, 0.0, 0.0, 0.0, 0.0, 1.7400577260463994E9, 0.0, 2025-02-20 13:22:06.046
50.0, -691.4345737579279, -403.22666347259656, 13.428110790904611, 145.91593667119741, 0.0, -0.01600000075995922, 0.9920000471174717, 0.0, 0.0, 0.0, 0.0, 0.0, 1.740057726046738E9, 0.0, 2025-02-20 13:22:06.046
50.0, -464.0355668021366, -642.7223768350668, 8.364286250900477, 122.30220835097134, 0.0, -0.01600000075995922, 0.9920000471174717, 0.0, 0.0, 0.0, 0.0, 0.0, 1.7400577260467815E9, 0.0, 2025-02-20 13:22:06.046
51.0, -271.5279564829543, -490.7029234361835, 6.6588918711058795, 350.68106909515336, 0.0, -0.01600000075995922, 0.9920000471174717, 0.0, 0.0, 0.0, 0.0, 0.0, 1.7400577260476277E9, 0.0, 2025-02-20 13:22:06.047
51.0, -503.75517428154126, -252.03746786387637, 15.06618697149679, 378.99211175972596, 0.0, -0.01600000075995922, 0.9920000471174717, 0.0, 0.0, 0.0, 0.0, 0.0, 1.7400577260476713E9, 0.0, 2025-02-20 13:22:06.047
52.0, -689.0223382865079, -401.2519962959923, 13.46550979046151, 152.89458998851478, 0.0, -0.01600000075995922, 0.9920000471174717, 0.0, 0.0, 0.0, 0.0, 0.0, 1.74005772607634E9, 0.0, 2025-02-20 13:22:06.076
52.0, -459.7346818530932, -638.6384060834534, 10.67180452356115, 127.0257019950077, 0.0, -0.01600000075995922, 0.9920000471174717, 0.0, 0.0, 0.0, 0.0, 0.0, 1.7400577260831485E9, 0.0, 2025-02-20 13:22:06.083
53.0, -270.7500572921708, -495.68821007711813, 11.733936110977083, 356.7135277236812, 0.0, -0.01600000075995922, 0.9920000471174717, 0.0, 0.0, 0.0, 0.0, 0.0, 1.7400577260833457E9, 0.0, 2025-02-20 13:22:06.083
53.0, -497.9508495503105, -253.48106924677268, 15.421477467287332, 382.18224642192945, 0.0, -0.01600000075995922, 0.9920000471174717, 0.0, 0.0, 0.0, 0.0, 0.0, 1.740057726083398E9, 0.0, 2025-02-20 13:22:06.083
54.0, -690.8773286645301, -409.86498589394614, 15.432697167154402, 158.7437935192138, 0.0, -0.01600000075995922, 0.9920000471174717, 0.0, 0.0, 0.0, 0.0, 0.0, 1.7400577260834365E9, 0.0, 2025-02-20 13:22:06.083
54.0, -453.3918115282431, -643.1823845296167, 11.580600212793797, 127.44831069000065, 0.0, -0.01600000075995922, 0.9920000471174717, 0.0, 0.0, 0.0, 0.0, 0.0, 1.7400577260835624E9, 0.0, 2025-02-20 13:22:06.083
55.0, -276.0981142288074, -495.30300038168207, 11.47214311407879, 353.7739663585089, 0.0, -0.01600000075995922, 0.9920000471174717, 0.0, 0.0, 0.0, 0.0, 0.0, 1.7400577261063495E9, 0.0, 2025-02-20 13:22:06.106
55.0, -504.05436627799645, -252.96122315293178, 13.585186589043587, 380.65636724000797, 0.0, -0.01600000075995922, 0.9920000471174717, 0.0, 0.0, 0.0, 0.0, 0.0, 1.7400577261064904E9, 0.0, 2025-02-20 13:22:06.106
56.0, -683.8425768478774, -400.9602840994485, 13.241115793120116, 146.45448226481676, 0.0, -0.01600000075995922, 0.9920000471174717, 0.0, 0.0, 0.0, 0.0, 0.0, 1.7400577261068401E9, 0.0, 2025-02-20 13:22:06.106
56.0, -455.64323130156845, -641.7425230466761, 13.577706789132208, 122.22367045190185, 0.0, -0.01600000075995922, 0.9920000471174717, 0.0, 0.0, 0.0, 0.0, 0.0, 1.7400577261068835E9, 0.0, 2025-02-20 13:22:06.106
57.0, -271.7299110805616, -498.39215774508193, 10.914898020680994, 351.95263508008793, 0.0, -0.01600000075995922, 0.9920000471174717, 0.0, 0.0, 0.0, 0.0, 0.0, 1.7400577261078231E9, 0.0, 2025-02-20 13:22:06.107
57.0, -502.2554743993096, -256.1401381152682, 12.074267006944865, 375.96279279561713, 0.0, -0.01600000075995922, 0.9920000471174717, 0.0, 0.0, 0.0, 0.0, 0.0, 1.7400577261078744E9, 0.0, 2025-02-20 13:22:06.107
58.0, -689.0559973861091, -398.5480486280285, 11.599299712572247, 154.09509787429124, 0.0, -0.01600000075995922, 0.9920000471174717, 0.0, 0.0, 0.0, 0.0, 0.0, 1.740057726136398E9, 0.0, 2025-02-20 13:22:06.136
58.0, -459.1138584604487, -157.7788993306458, 11.546941113192588, 122.46302404906601, 0.0, -0.01600000075995922, 0.9920000471174717, 0.0, 0.0, 0.0, 0.0, 0.0, 1.740057726136542E9, 0.0, 2025-02-20 13:22:06.136
59.0, -273.70457825716585, -4.132589451037347, 8.700877246912569, 345.1385373608209, 0.0, -0.01600000075995922, 0.9920000471174717, 0.0, 0.0, 0.0, 0.0, 0.0, 1.740057726136717E9, 0.0, 2025-02-20 13:22:06.136
59.0, -498.9531427384354, -248.1030931104906, 10.64188532391563, 374.62764851143584, 0.0, -0.01600000075995922, 0.9920000471174717, 0.0, 0.0, 0.0, 0.0, 0.0, 1.7400577261367545E9, 0.0, 2025-02-20 13:22:06.136
60.0, -686.2847315189429, -404.9170982525684, 18.473235831130296, 144.6256711864844, 0.0, -0.01600000075995922, 0.9920000471174717, 0.0, 0.0, 0.0, 0.0, 0.0, 1.740057726137709E9, 0.0, 2025-02-20 13:22:06.137
60.0, -456.68666338920593, -642.2885484402068, 15.054967271629721, 117.22716411110014, 0.0, -0.01600000075995922, 0.9920000471174717, 0.0, 0.0, 0.0, 0.0, 0.0, 1.7400577261377642E9, 0.0, 2025-02-20 13:22:06.137
61.0, -277.19390491582453, -501.24570141127333, 14.752035375218838, 354.76877974672243, 0.0, -0.01600000075995922, 0.9920000471174717, 0.0, 0.0, 0.0, 0.0, 0.0, 1.7400577261670208E9, 0.0, 2025-02-20 13:22:06.167
61.0, -505.1501569650136, -738.5217841500416, 14.404224679339677, 376.25824489211664, 0.0, -0.01600000075995922, 0.9920000471174717, 0.0, 0.0, 0.0, 0.0, 0.0, 1.7400577261671093E9, 0.0, 2025-02-20 13:22:06.167
62.0, -684.8635695357807, -887.2950043873861, 13.940477084834129, 145.57186587527394, -0.01600000075995922, -0.01600000075995922, 0.9920000471174717, 0.0, 0.0, 0.0, 0.0, 0.0, 1.7400577261673677E9, 0.0, 2025-02-20 13:22:06.167
62.0, -455.6282717017457, -1132.2285322854295, 12.773628298658878, 123.12124644126743, -0.01600000075995922, -0.01600000075995922, 0.9920000471174717, 0.0, 0.0, 0.0, 0.0, 0.0, 1.7400577261674256E9, 0.0, 2025-02-20 13:22:06.167
63.0, -285.86299301311374, -994.5553351165727, 9.789188134018332, 350.3369982992299, -0.01600000075995922, -0.01600000075995922, 0.9920000471174717, 0.0, 0.0, 0.0, 0.0, 0.0, 1.7400577261677186E9, 0.0, 2025-02-20 13:22:06.167
63.0, -499.7460015290417, -1231.5097864591517, 9.48251633765176, 378.2703110682778, -0.01600000075995922, -0.01600000075995922, 0.9920000471174717, 0.0, 0.0, 0.0, 0.0, 0.0, 1.740057726167776E9, 0.0, 2025-02-20 13:22:06.167
64.0, -684.594296738971, -1381.6144110807218, 14.860492473933846, 142.87165810726583, -0.01600000075995922, -0.01600000075995922, 0.9920000471174717, 0.0, 0.0, 0.0, 0.0, 0.0, 1.7400577261964011E9, 0.0, 2025-02-20 13:22:06.196
64.0, -462.5844856193289, -1139.6223144978285, 14.70715657575056, 119.62070008274168, -0.01600000075995922, -0.01600000075995922, 0.9920000471174717, 0.0, 0.0, 0.0, 0.0, 0.0, 1.7400577261964743E9, 0.0, 2025-02-20 13:22:06.196
65.0, -280.4700572770089, -992.9135190360248, 4.519669096451253, 345.78927995311096, -0.01600000075995922, -0.01600000075995922, 0.9920000471174717, 0.0, 0.0, 0.0, 0.0, 0.0, 1.7400577261968384E9, 0.0, 2025-02-20 13:22:06.196
65.0, -501.997421302367, -1230.855303966906, 11.273928416427225, 369.0103187779896, -0.01600000075995922, -0.01600000075995922, 0.9920000471174717, 0.0, 0.0, 0.0, 0.0, 0.0, 1.7400577261969483E9, 0.0, 2025-02-20 13:22:06.196
66.0, -686.6250624149106, -1380.1782894977368, 12.807287398260087, 141.53651382308453, -0.01600000075995922, -0.01600000075995922, 0.9920000471174717, 0.0, 0.0, 0.0, 0.0, 0.0, 1.7400577261976461E9, 0.0, 2025-02-20 13:22:06.197
66.0, -462.90611701551825, -1135.1718335505575, 12.078006906900555, 119.23923028726131, -0.01600000075995922, -0.01600000075995922, 0.9920000471174717, 0.0, 0.0, 0.0, 0.0, 0.0, 1.7400577261976955E9, 0.0, 2025-02-20 13:22:06.197
67.0, -279.9763904828578, -994.3047618195415, 4.9684570911340415, 351.1784757892601, -0.01600000075995922, -0.01600000075995922, 0.9920000471174717, 0.0, 0.0, 0.0, 0.0, 0.0, 1.7400577262265675E9, 0.0, 2025-02-20 13:22:06.226
67.0, -498.8484255396761, -1225.331471732352, 9.190804141107947, 378.5732429646887, -0.01600000075995922, -0.01600000075995922, 0.9920000471174717, 0.0, 0.0, 0.0, 0.0, 0.0, 1.7400577262266207E9, 0.0, 2025-02-20 13:22:06.226
68.0, -679.5903105982579, -1372.8817446841858, 11.681577511597425, 144.68176968581975, -0.01600000075995922, -0.01600000075995922, 0.9920000471174717, 0.0, 0.0, 0.0, 0.0, 0.0, 1.74005772622674E9, 0.0, 2025-02-20 13:22:06.226
68.0, -464.3310188986361, -1140.388993988745, 12.164024605881423, 121.89081935584545, -0.01600000075995922, -0.01600000075995922, 0.9920000471174717, 0.0, 0.0, 0.0, 0.0, 0.0, 1.7400577262268164E9, 0.0, 2025-02-20 13:22:06.226
69.0, -279.41540548950434, -994.5104563171044, 8.502662549261004, 344.20356237189844, -0.01600000075995922, -0.01600000075995922, 0.9920000471174717, 0.0, 0.0, 0.0, 0.0, 0.0, 1.7400577262279098E9, 0.0, 2025-02-20 13:22:06.227
69.0, -499.31217313418165, -1236.6970276976936, 10.503509025555104, 378.65926066366956, -0.01600000075995922, -0.01600000075995922, 0.9920000471174717, 0.0, 0.0, 0.0, 0.0, 0.0, 1.7400577262279632E9, 0.0, 2025-02-20 13:22:06.227
70.0, -686.5951432152651, -1386.412702723872, 15.761808363255113, 144.9248631829396, -0.01600000075995922, -0.01600000075995922, 0.9920000471174717, 0.0, 0.0, 0.0, 0.0, 0.0, 1.7400577262568676E9, 0.0, 2025-02-20 13:22:06.256
70.0, -472.39050330314785, -1630.022306037601, 12.328580203931779, 121.47943036071956, -0.01600000075995922, -0.01600000075995922, 0.9920000471174717, 0.0, 0.0, 0.0, 0.0, 0.0, 1.7400577262569191E9, 0.0, 2025-02-20 13:22:06.256
71.0, -285.9116117125377, -1478.31326433504, 6.703770670574158, 345.75562085350975, -0.01600000075995922, -0.01600000075995922, 0.9920000471174717, 0.0, 0.0, 0.0, 0.0, 0.0, 1.7400577262571573E9, 0.0, 2025-02-20 13:22:06.257
71.0, -497.94710965035483, -1722.3024674942717, 8.66721814731136, 369.1150359767489, -0.01600000075995922, -0.01600000075995922, 0.9920000471174717, 0.0, 0.0, 0.0, 0.0, 0.0, 1.7400577262572691E9, 0.0, 2025-02-20 13:22:06.257
72.0, -680.9142351825722, -1861.1200740495697, 13.349572891835123, 144.48355498816818, -0.01600000075995922, -0.01600000075995922, 0.9920000471174717, 0.0, 0.0, 0.0, 0.0, 0.0, 1.7400577262576065E9, 0.0, 2025-02-20 13:22:06.257
72.0, -464.91070339176804, -1630.2728793346323, 9.355359739158303, 129.89794516097754, -0.01600000075995922, -0.01600000075995922, 0.9920000471174717, 0.0, 0.0, 0.0, 0.0, 0.0, 1.740057726257646E9, 0.0, 2025-02-20 13:22:06.257
73.0, -283.5143358409405, -1482.352356287185, 8.184771053027362, 350.9690413917415, -0.01600000075995922, -0.01600000075995922, 0.9920000471174717, 0.0, 0.0, 0.0, 0.0, 0.0, 1.7400577262863388E9, 0.0, 2025-02-20 13:22:06.286
73.0, -500.6622770181857, -1716.3822058644146, 11.326287015806884, 369.80691746855155, -0.01600000075995922, -0.01600000075995922, 0.9920000471174717, 0.0, 0.0, 0.0, 0.0, 0.0, 1.74005772628641E9, 0.0, 2025-02-20 13:22:06.286
74.0, -686.8756357119419, -1862.0475692385808, 10.877499021124095, 144.6967292856425, -0.01600000075995922, -0.01600000075995922, 0.9920000471174717, 0.0, 0.0, 0.0, 0.0, 0.0, 1.7400577262868545E9, 0.0, 2025-02-20 13:22:06.286
74.0, -465.8232389809564, -1627.853164063301, 8.210950352717191, 128.29726797994226, -0.01600000075995922, -0.01600000075995922, 0.9920000471174717, 0.0, 0.0, 0.0, 0.0, 0.0, 1.740057726286903E9, 0.0, 2025-02-20 13:22:06.286
75.0, -290.092819862999, -1485.9912789440714, 7.85191995697096, 354.31999175203964, -0.01600000075995922, -0.01600000075995922, 0.9920000471174717, 0.0, 0.0, 0.0, 0.0, 0.0, 1.7400577262876804E9, 0.0, 2025-02-20 13:22:06.287
75.0, -500.79691341659054, -1717.3321404531598, 8.801854545716196, 371.6768674463965, -0.01600000075995922, -0.01600000075995922, 0.9920000471174717, 0.0, 0.0, 0.0, 0.0, 0.0, 1.7400577262877371E9, 0.0, 2025-02-20 13:22:06.287
76.0, -683.3302105539478, -1865.02452960331, 14.924070773180574, 147.53531335201114, -0.01600000075995922, -0.01600000075995922, 0.9920000471174717, 0.0, 0.0, 0.0, 0.0, 0.0, 1.7400577263168852E9, 0.0, 2025-02-20 13:22:06.316
76.0, -473.86776378564537, -1630.8712633275427, 12.141585206147283, 127.38473239075392, -0.01600000075995922, -0.01600000075995922, 0.9920000471174717, 0.0, 0.0, 0.0, 0.0, 0.0, 1.7400577263169432E9, 0.0, 2025-02-20 13:22:06.316
77.0, -292.2582219373435, -1487.360082327854, 8.289488251786679, 350.6773291951977, -0.01600000075995922, -0.01600000075995922, 0.9920000471174717, 0.0, 0.0, 0.0, 0.0, 0.0, 1.740057726317138E9, 0.0, 2025-02-20 13:22:06.317
77.0, -506.91538974409923, -1720.1557649197057, 10.481069625820965, 372.2715115393512, -0.01600000075995922, -0.01600000075995922, 0.9920000471174717, 0.0, 0.0, 0.0, 0.0, 0.0, 1.7400577263172004E9, 0.0, 2025-02-20 13:22:06.317
78.0, -684.3960820413195, -1855.9851914104074, 12.904524797108024, 145.71024217363447, -0.01600000075995922, -0.01600000075995922, 0.9920000471174717, 0.0, 0.0, 0.0, 0.0, 0.0, 1.7400577263189254E9, 0.0, 2025-02-20 13:22:06.318
78.0, -474.27915278077126, -1634.1100166891702, 12.115405906457454, 128.9480105722323, -0.01600000075995922, -0.01600000075995922, 0.9920000471174717, 0.0, 0.0, 0.0, 0.0, 0.0, 1.7400577263190107E9, 0.0, 2025-02-20 13:22:06.319
79.0, -294.60313920956105, -1493.4448995557614, 9.295521339867264, 353.6954284594394, -0.01600000075995922, -0.01600000075995922, 0.9920000471174717, 0.0, 0.0, 0.0, 0.0, 0.0, 1.7400577263465397E9, 0.0, 2025-02-20 13:22:06.346
79.0, -503.54199998406693, -1728.5630600200966, 14.467802978586406, 369.58626337116584, -0.01600000075995922, -0.01600000075995922, 0.9920000471174717, 0.0, 0.0, 0.0, 0.0, 0.0, 1.7400577263466082E9, 0.0, 2025-02-20 13:22:06.346
80.0, -683.1506953560747, -1869.3702933518216, 16.932397049386054, 153.89688317663968, -0.01600000075995922, -0.01600000075995922, 0.9920000471174717, 0.0, 0.0, 0.0, 0.0, 0.0, 1.7400577263467731E9, 0.0, 2025-02-20 13:22:06.346
80.0, -466.61609777156264, -1629.7418135409243, 11.644178512040526, 137.92377046588808, -0.01600000075995922, -0.01600000075995922, 0.9920000471174717, 0.0, 0.0, 0.0, 0.0, 0.0, 1.7400577263468091E9, 0.0, 2025-02-20 13:22:06.346
81.0, -301.5518733272329, -1511.0897475467063, 9.546094636898488, 363.7183603406884, -0.01600000075995922, -0.01600000075995922, 0.9920000471174717, 0.0, 0.0, 0.0, 0.0, 0.0, 1.7400577263479652E9, 0.0, 2025-02-20 13:22:06.347
81.0, -504.2600607755594, -1736.6449838243425, 9.781708334106952, 367.6751744938083, -0.01600000075995922, -0.01600000075995922, 0.9920000471174717, 0.0, 0.0, 0.0, 0.0, 0.0, 1.7400577263480864E9, 0.0, 2025-02-20 13:22:06.348
82.0, -678.9208685061894, -1886.4653760492802, 18.432096931617707, 146.02439376991242, 0.0, -0.01600000075995922, 0.9920000471174717, 0.0, 0.0, 0.0, 0.0, 0.0, 1.740057726376388E9, 0.0, 2025-02-20 13:22:06.376
82.0, -467.95124205574393, -1646.5264845420606, 12.208903405349702, 123.33816063869745, 0.0, -0.01600000075995922, 0.9920000471174717, 0.0, 0.0, 0.0, 0.0, 0.0, 1.7400577263764536E9, 0.0, 2025-02-20 13:22:06.376
83.0, -289.9993223641068, -1515.2971349968575, 4.6879645944572985, 355.8870098334737, 0.0, -0.01600000075995922, 0.9920000471174717, 0.0, 0.0, 0.0, 0.0, 0.0, 1.7400577263767943E9, 0.0, 2025-02-20 13:22:06.376
83.0, -494.86169218691066, -1732.8115863697603, 9.310480939690024, 368.9317808789201, 0.0, -0.01600000075995922, 0.9920000471174717, 0.0, 0.0, 0.0, 0.0, 0.0, 1.74005772637685E9, 0.0, 2025-02-20 13:22:06.376
84.0, -679.8820227948017, -1879.3670459333807, 14.191050381865352, 147.41563655342907, 0.0, -0.01600000075995922, 0.9920000471174717, 0.0, 0.0, 0.0, 0.0, 0.0, 1.7400577263776586E9, 0.0, 2025-02-20 13:22:06.377
84.0, -465.87559758033603, -1646.7134795398451, 13.151358194183558, 133.57426681742072, 0.0, -0.01600000075995922, 0.9920000471174717, 0.0, 0.0, 0.0, 0.0, 0.0, 1.7400577263776968E9, 0.0, 2025-02-20 13:22:06.377
85.0, -297.1051322799176, -1512.0770811350085, 7.249796064104885, 357.8878563097678, 0.0, -0.01600000075995922, 0.9920000471174717, 0.0, 0.0, 0.0, 0.0, 0.0, 1.7400577264066484E9, 0.0, 2025-02-20 13:22:06.406
85.0, -492.61027241358534, -1733.0621596667916, 9.344140039291233, 367.1104496004991, 0.0, -0.01600000075995922, 0.9920000471174717, 0.0, 0.0, 0.0, 0.0, 0.0, 1.7400577264067304E9, 0.0, 2025-02-20 13:22:06.406
86.0, -674.8107184548862, -1879.8756723273546, 13.89185838541016, 147.50539415236562, 0.0, -0.01600000075995922, 0.9920000471174717, 0.0, 0.0, 0.0, 0.0, 0.0, 1.740057726406885E9, 0.0, 2025-02-20 13:22:06.406
86.0, -467.31171916332096, -1653.542536858935, 9.377799138892442, 138.5483337584883, 0.0, -0.01600000075995922, 0.9920000471174717, 0.0, 0.0, 0.0, 0.0, 0.0, 1.7400577264069312E9, 0.0, 2025-02-20 13:22:06.406
87.0, -293.5372677221894, -1514.3397206082009, 9.04868794279173, 354.5630852491595, 0.0, -0.01600000075995922, 0.9920000471174717, 0.0, 0.0, 0.0, 0.0, 0.0, 1.7400577264078808E9, 0.0, 2025-02-20 13:22:06.407
87.0, -496.64188456581905, -1735.2200819412246, 12.605332800652832, 371.5310113481246, 0.0, -0.01600000075995922, 0.9920000471174717, 0.0, 0.0, 0.0, 0.0, 0.0, 1.740057726407936E9, 0.0, 2025-02-20 13:22:06.407
88.0, -677.1631155270152, -1874.998842785135, 16.008641760330647, 140.56039993464947, 0.0, -0.01600000075995922, 0.9920000471174717, 0.0, 0.0, 0.0, 0.0, 0.0, 1.7400577264365597E9, 0.0, 2025-02-20 13:22:06.436
88.0, -471.8893567090854, -1650.1579273990355, 14.131211982574314, 133.3236935203895, 0.0, -0.01600000075995922, 0.9920000471174717, 0.0, 0.0, 0.0, 0.0, 0.0, 1.740057726436659E9, 0.0, 2025-02-20 13:22:06.436
89.0, -296.6189452856779, -1510.7232373510487, 4.886179292108864, 351.67962238332257, 0.0, -0.01600000075995922, 0.9920000471174717, 0.0, 0.0, 0.0, 0.0, 0.0, 1.740057726436796E9, 0.0, 2025-02-20 13:22:06.436
89.0, -497.9620692501776, -1733.7129022590816, 11.535721413325518, 362.9965596492402, 0.0, -0.01600000075995922, 0.9920000471174717, 0.0, 0.0, 0.0, 0.0, 0.0, 1.7400577264368355E9, 0.0, 2025-02-20 13:22:06.436
90.0, -684.2240466433577, -1877.9945026496425, 14.29202768066898, 144.2180220913142, 0.0, -0.01600000075995922, 0.9920000471174717, 0.0, 0.0, 0.0, 0.0, 0.0, 1.740057726438125E9, 0.0, 2025-02-20 13:22:06.438
90.0, -469.0021539432928, -1651.829662679229, 11.88353210920468, 129.26590206846595, 0.0, -0.01600000075995922, 0.9920000471174717, 0.0, 0.0, 0.0, 0.0, 0.0, 1.740057726438167E9, 0.0, 2025-02-20 13:22:06.438
91.0, -293.78784101922065, -1508.6251534759067, 11.04205461917445, 351.2495338884182, 0.0, -0.01600000075995922, 0.9920000471174717, 0.0, 0.0, 0.0, 0.0, 0.0, 1.7400577264670997E9, 0.0, 2025-02-20 13:22:06.467
91.0, -498.1341046481393, -1732.8826444689184, 7.44801076175645, 369.66106137027964, 0.0, -0.01600000075995922, 0.9920000471174717, 0.0, 0.0, 0.0, 0.0, 0.0, 1.7400577264671845E9, 0.0, 2025-02-20 13:22:06.467
92.0, -673.210041273851, -1874.6323325894773, 13.701123487669975, 144.7303883852437, 0.0, -0.01600000075995922, 0.9920000471174717, 0.0, 0.0, 0.0, 0.0, 0.0, 1.7400577264674027E9, 0.0, 2025-02-20 13:22:06.467
92.0, -470.2512805284932, -1647.5811363295652, 13.787141186650842, 130.97877624817193, 0.0, -0.01600000075995922, 0.9920000471174717, 0.0, 0.0, 0.0, 0.0, 0.0, 1.7400577264674454E9, 0.0, 2025-02-20 13:22:06.467
93.0, -294.5133816106245, -1507.1329333935864, 10.611966124270111, 354.6752822478302, 0.0, -0.01600000075995922, 0.9920000471174717, 0.0, 0.0, 0.0, 0.0, 0.0, 1.7400577264675655E9, 0.0, 2025-02-20 13:22:06.467
93.0, -492.34847941668704, -1728.5630600200966, 17.669157340656966, 370.06871046544984, 0.0, -0.01600000075995922, 0.9920000471174717, 0.0, 0.0, 0.0, 0.0, 0.0, 1.740057726467595E9, 0.0, 2025-02-20 13:22:06.467
94.0, -669.9002298130654, -1863.105960926041, 15.230742569547147, 144.98844148218632, 0.0, -0.01600000075995922, 0.9920000471174717, 0.0, 0.0, 0.0, 0.0, 0.0, 1.7400577264963684E9, 0.0, 2025-02-20 13:22:06.496
94.0, -468.2317345524207, -1648.3814749200828, 11.988249307963997, 124.35167352668941, 0.0, -0.01600000075995922, 0.9920000471174717, 0.0, 0.0, 0.0, 0.0, 0.0, 1.740057726496519E9, 0.0, 2025-02-20 13:22:06.496
95.0, -296.95553628169, -1517.896365466062, 11.790034610312432, 361.05929147219285, 0.0, -0.01600000075995922, 0.9920000471174717, 0.0, 0.0, 0.0, 0.0, 0.0, 1.7400577264967709E9, 0.0, 2025-02-20 13:22:06.496
95.0, -496.5783062665723, -1725.0774732613936, 12.825986898038536, 368.7597454809584, 0.0, -0.01600000075995922, 0.9920000471174717, 0.0, 0.0, 0.0, 0.0, 0.0, 1.740057726496809E9, 0.0, 2025-02-20 13:22:06.496
96.0, -675.7943121432327, -1863.1919786250219, 15.406517867464572, 144.3264791900292, 0.0, -0.01600000075995922, 0.9920000471174717, 0.0, 0.0, 0.0, 0.0, 0.0, 1.740057726497606E9, 0.0, 2025-02-20 13:22:06.497
96.0, -471.2647934164852, -1649.6493010050617, 14.572520177345723, 129.9839628599584, 0.0, -0.01600000075995922, 0.9920000471174717, 0.0, 0.0, 0.0, 0.0, 0.0, 1.740057726497665E9, 0.0, 2025-02-20 13:22:06.497
97.0, -302.5466867154464, -1515.8730795900337, 11.303847616072744, 351.5524657848291, 0.0, -0.01600000075995922, 0.9920000471174717, 0.0, 0.0, 0.0, 0.0, 0.0, 1.7400577265268788E9, 0.0, 2025-02-20 13:22:06.526
97.0, -493.7733812998049, -1725.8179734526202, 11.303847616072744, 360.6329428772442, 0.0, -0.01600000075995922, 0.9920000471174717, 0.0, 0.0, 0.0, 0.0, 0.0, 1.7400577265269496E9, 0.0, 2025-02-20 13:22:06.526
98.0, -669.3990832190029, -1858.9023133758456, 12.814767198171467, 134.9916889006272, 0.0, -0.01600000075995922, 0.9920000471174717, 0.0, 0.0, 0.0, 0.0, 0.0, 1.7400577265271838E9, 0.0, 2025-02-20 13:22:06.527
98.0, -478.72215392813087, -1644.750032063108, 12.758668698836118, 130.77308175060898, 0.0, -0.01600000075995922, 0.9920000471174717, 0.0, 0.0, 0.0, 0.0, 0.0, 1.7400577265272694E9, 0.0, 2025-02-20 13:22:06.527
99.0, -298.8516655592248, -1507.2189510925673, 9.748049234505743, 355.3746435395442, 0.0, -0.01600000075995922, 0.9920000471174717, 0.0, 0.0, 0.0, 0.0, 0.0, 1.7400577265276904E9, 0.0, 2025-02-20 13:22:06.527
99.0, -490.04096114402637, -1721.7227830011398, 13.581446689087898, 358.65453580068424, 0.0, -0.01600000075995922, 0.9920000471174717, 0.0, 0.0, 0.0, 0.0, 0.0, 1.7400577265277505E9, 0.0, 2025-02-20 13:22:06.527
100.0, -670.2330809091218, -1863.1770190251991, 17.605579041410238, 132.48969583027065, 0.0, -0.01600000075995922, 1.008000047877431, 0.0, 0.0, 0.0, 0.0, 0.0, 1.7400577265566385E9, 0.0, 2025-02-20 13:22:06.556
100.0, -467.8951435564086, -1649.1556342109106, 10.563347424846143, 129.56509406492114, 0.0, -0.01600000075995922, 1.008000047877431, 0.0, 0.0, 0.0, 0.0, 0.0, 1.740057726556692E9, 0.0, 2025-02-20 13:22:06.556
0.0, 193.19014206109568, -35.211158082820475, 13.132658694405109, -138.06962656416, 0.0, -0.01600000075995922, 1.008000047877431, 0.0, 0.0, 0.0, 0.0, 0.0, 1.7400577265569496E9, 0.0, 2025-02-20 13:22:06.556
1.0, 1.4623008826747537, -248.52570180548355, 7.7883416577242315, -128.12149268202484, 0.0, -0.01600000075995922, 1.008000047877431, 0.0, 0.0, 0.0, 0.0, 0.0, 1.740057726557544E9, 0.0, 2025-02-20 13:22:06.557
1.0, -172.09523636102676, -387.36200786055997, 13.85445938585326, -351.1896954891272, 0.0, -0.01600000075995922, 1.008000047877431, 0.0, 0.0, 0.0, 0.0, 0.0, 1.7400577265575776E9, 0.0, 2025-02-20 13:22:06.557
2.0, 25.61270484654233, -169.01729869749397, 11.412304714787751, -359.47357389098033, 0.0, -0.01600000075995922, 1.008000047877431, 0.0, 0.0, 0.0, 0.0, 0.0, 1.740057726558581E9, 0.0, 2025-02-20 13:22:06.558
2.0, 196.56727172108367, -40.93694491498172, 7.548988060560077, -136.35301248449832, 0.0, -0.01600000075995922, 1.008000047877431, 0.0, 0.0, 0.0, 0.0, 0.0, 1.7400577265586188E9, 0.0, 2025-02-20 13:22:06.558
3.0, -2.296298572793603, -247.83382031368092, 10.443670626264066, -127.05562119465321, 0.0, -0.01600000075995922, 1.008000047877431, 0.0, 0.0, 0.0, 0.0, 0.0, 1.7400577265865355E9, 0.0, 2025-02-20 13:22:06.586
3.0, -177.05434370227158, -388.70837184460834, 12.612812600564212, -353.31021876400337, 0.0, -0.01600000075995922, 1.008000047877431, 0.0, 0.0, 0.0, 0.0, 0.0, 1.7400577265866046E9, 0.0, 2025-02-20 13:22:06.586
4.0, 19.273574421647936, -173.64355494268239, 11.756375510711223, -370.9027081555687, 0.0, -0.01600000075995922, 1.008000047877431, 0.0, 0.0, 0.0, 0.0, 0.0, 1.7400577265870285E9, 0.0, 2025-02-20 13:22:06.587
4.0, 195.4116426347755, -37.39525965694338, 3.577214307617396, -156.15952264983207, 0.0, -0.01600000075995922, 1.008000047877431, 0.0, 0.0, 0.0, 0.0, 0.0, 1.740057726587191E9, 0.0, 2025-02-20 13:22:06.587
5.0, 1.0284724878147244, -245.25328934425488, 16.061000359710306, -140.08169274032116, 0.0, -0.01600000075995922, 1.008000047877431, 0.0, 0.0, 0.0, 0.0, 0.0, 1.7400577266163416E9, 0.0, 2025-02-20 13:22:06.616
5.0, -173.50143874436617, -387.1002148636617, 15.88522506179288, -351.57490518456325, 0.0, -0.01600000075995922, 1.008000047877431, 0.0, 0.0, 0.0, 0.0, 0.0, 1.7400577266163867E9, 0.0, 2025-02-20 13:22:06.616
6.0, 21.749388192314655, -176.94214670360088, 10.780261622276157, -357.94021490914747, 0.0, -0.01600000075995922, 1.008000047877431, 0.0, 0.0, 0.0, 0.0, 0.0, 1.7400577266168544E9, 0.0, 2025-02-20 13:22:06.616
6.0, 196.90012281714007, -33.34494800493121, 7.365732962731272, -133.25637532118708, 0.0, -0.01600000075995922, 1.008000047877431, 0.0, 0.0, 0.0, 0.0, 0.0, 1.7400577266168964E9, 0.0, 2025-02-20 13:22:06.616
7.0, 7.562077710404992, -243.71993036242202, 4.9721969910897315, -128.29726797994226, 0.0, -0.01600000075995922, 1.008000047877431, 0.0, 0.0, 0.0, 0.0, 0.0, 1.74005772661787E9, 0.0, 2025-02-20 13:22:06.617
7.0, -178.4942051852122, -384.33268889645115, 13.551527489442378, -344.23348157154396, 0.0, -0.01600000075995922, 1.008000047877431, 0.0, 0.0, 0.0, 0.0, 0.0, 1.740057726617977E9, 0.0, 2025-02-20 13:22:06.617
8.0, 15.413997667375952, -168.96120019815862, 12.754928798880428, -353.98340075602755, 0.0, -0.01600000075995922, 1.008000047877431, 0.0, 0.0, 0.0, 0.0, 0.0, 1.7400577266184013E9, 0.0, 2025-02-20 13:22:06.618
8.0, 182.15743719181046, -36.475244267843664, 6.0567679782398045, -128.49174277763814, 0.0, -0.01600000075995922, 1.008000047877431, 0.0, 0.0, 0.0, 0.0, 0.0, 1.7400577266184409E9, 0.0, 2025-02-20 13:22:06.618
9.0, -6.776698719710112, -248.08065371075645, 6.213843776378781, -131.49488244205713, 0.0, -0.01600000075995922, 1.008000047877431, 0.0, 0.0, 0.0, 0.0, 0.0, 1.7400577266466131E9, 0.0, 2025-02-20 13:22:06.646
9.0, -177.3797149984166, -383.77544380305335, 13.45802999055013, -344.71966856578365, 0.0, -0.01600000075995922, 1.008000047877431, 0.0, 0.0, 0.0, 0.0, 0.0, 1.7400577266466708E9, 0.0, 2025-02-20 13:22:06.646
10.0, 17.09695264743641, -162.19572117831558, 13.738522487226874, -348.261353823822, 0.0, -0.01600000075995922, 1.008000047877431, 0.0, 0.0, 0.0, 0.0, 0.0, 1.7400577266470242E9, 0.0, 2025-02-20 13:22:06.647
10.0, 185.7028623498045, -32.51843011472374, 8.476483249571174, -127.72132338676602, 0.0, -0.01600000075995922, 1.008000047877431, 0.0, 0.0, 0.0, 0.0, 0.0, 1.7400577266470606E9, 0.0, 2025-02-20 13:22:06.647
11.0, -7.494759511202574, -248.71643670322374, 15.776767963077873, -116.5016235196963, 0.0, -0.01600000075995922, 1.008000047877431, 0.0, 0.0, 0.0, 0.0, 0.0, 1.7400577266763208E9, 0.0, 2025-02-20 13:22:06.676
11.0, -173.43786044511944, -377.76542457425967, 12.122885706368834, -339.12851813202724, 0.0, -0.01600000075995922, 1.008000047877431, 0.0, 0.0, 0.0, 0.0, 0.0, 1.7400577266763923E9, 0.0, 2025-02-20 13:22:06.676
12.0, 16.883778349962085, -167.44280081614852, 9.403978438582271, -347.670449630823, 0.0, -0.01600000075995922, 1.008000047877431, 0.0, 0.0, 0.0, 0.0, 0.0, 1.7400577266767547E9, 0.0, 2025-02-20 13:22:06.676
12.0, 183.71697547333315, -38.464871044270694, 11.206610217224807, -118.80914179235697, 0.0, -0.01600000075995922, 1.008000047877431, 0.0, 0.0, 0.0, 0.0, 0.0, 1.740057726676806E9, 0.0, 2025-02-20 13:22:06.676
13.0, -5.63602923322469, -245.73947633849457, 14.561300477478653, -116.20617142319679, 0.0, -0.01600000075995922, 1.008000047877431, 0.0, 0.0, 0.0, 0.0, 0.0, 1.7400577266774013E9, 0.0, 2025-02-20 13:22:06.677
13.0, -176.8299497049302, -392.2500571026467, 16.26295495731756, -338.3917578407563, 0.0, -0.01600000075995922, 1.008000047877431, 0.0, 0.0, 0.0, 0.0, 0.0, 1.7400577266774516E9, 0.0, 2025-02-20 13:22:06.677
14.0, 20.70969600463286, -166.40684852842242, 9.695690635126084, -352.13215027796105, 0.0, -0.01600000075995922, 1.008000047877431, 0.0, 0.0, 0.0, 0.0, 0.0, 1.7400577266796992E9, 0.0, 2025-02-20 13:22:06.679
14.0, 192.71143486676738, -16.95670639909804, 10.017322031315416, -135.5863329935819, 0.0, -0.01600000075995922, 1.008000047877431, 0.0, 0.0, 0.0, 0.0, 0.0, 1.7400577266798828E9, 0.0, 2025-02-20 13:22:06.679
15.0, 10.359522877261043, -220.84296233346686, 11.48336281394586, -131.6556981401518, 0.0, -0.01600000075995922, 1.008000047877431, 0.0, 0.0, 0.0, 0.0, 0.0, 1.7400577267065687E9, 0.0, 2025-02-20 13:22:06.706
15.0, -159.151442614384, -348.53436652058735, 14.939030373003334, -351.698321883101, 0.0, -0.01600000075995922, 1.008000047877431, 0.0, 0.0, 0.0, 0.0, 0.0, 1.740057726706634E9, 0.0, 2025-02-20 13:22:06.706
16.0, 24.68520965753123, -144.54339338745922, 14.172350882086903, -362.7833853517659, 0.0, -0.01600000075995922, 1.008000047877431, 0.0, 0.0, 0.0, 0.0, 0.0, 1.7400577267071264E9, 0.0, 2025-02-20 13:22:06.707
16.0, 186.13669074466452, -19.74667176604271, 3.9624240030534565, -132.4747362304479, 0.0, -0.01600000075995922, 1.008000047877431, 0.0, 0.0, 0.0, 0.0, 0.0, 1.7400577267071671E9, 0.0, 2025-02-20 13:22:06.707
17.0, 6.02871872857213, -210.4161212570034, 8.506402449216694, -129.60623296443373, 0.0, -0.01600000075995922, 1.008000047877431, 0.0, 0.0, 0.0, 0.0, 0.0, 1.74005772673655E9, 0.0, 2025-02-20 13:22:06.736
17.0, -165.36341644078493, -356.20116142975166, 14.69593687588349, -354.5481256493367, 0.0, -0.01600000075995922, 1.008000047877431, 0.0, 0.0, 0.0, 0.0, 0.0, 1.7400577267365997E9, 0.0, 2025-02-20 13:22:06.736
18.0, 23.454782572109252, -156.739207142964, 11.85361290955916, -358.20574780600145, 0.0, -0.01600000075995922, 1.008000047877431, 0.0, 0.0, 0.0, 0.0, 0.0, 1.7400577267367935E9, 0.0, 2025-02-20 13:22:06.736
18.0, 182.89793738303706, -28.55039626173675, 8.491442849393934, -143.2905269023031, 0.0, -0.01600000075995922, 1.008000047877431, 0.0, 0.0, 0.0, 0.0, 0.0, 1.740057726736839E9, 0.0, 2025-02-20 13:22:06.736
19.0, 0.6582223922014236, -232.04770260071382, 10.600746424403042, -135.61251229327172, 0.0, -0.01600000075995922, 1.008000047877431, 0.0, 0.0, 0.0, 0.0, 0.0, 1.740057726737606E9, 0.0, 2025-02-20 13:22:06.737
19.0, -173.65477464254946, -361.27994556957856, 14.063893783371896, -351.80303908186033, 0.0, -0.01600000075995922, 1.008000047877431, 0.0, 0.0, 0.0, 0.0, 0.0, 1.7400577267376769E9, 0.0, 2025-02-20 13:22:06.737
20.0, 12.223863005172461, -159.95552110485733, 16.154497858602554, -355.9992068321444, 0.0, -0.01600000075995922, 1.008000047877431, 0.0, 0.0, 0.0, 0.0, 0.0, 1.7400577267386165E9, 0.0, 2025-02-20 13:22:06.738
20.0, 176.7345822560601, -34.14528659544885, 7.687364358920604, -131.58837994094938, 0.0, -0.01600000075995922, 1.008000047877431, 0.0, 0.0, 0.0, 0.0, 0.0, 1.7400577267386537E9, 0.0, 2025-02-20 13:22:06.738
21.0, -5.119923039339483, -236.23265065113083, 13.289734492544085, -135.72470929194242, 0.0, -0.01600000075995922, 1.008000047877431, 0.0, 0.0, 0.0, 0.0, 0.0, 1.740057726767262E9, 0.0, 2025-02-20 13:22:06.767
21.0, -169.96349338628352, -367.43208099668846, 16.24051555758342, -350.0452861026861, 0.0, -0.01600000075995922, 1.008000047877431, 0.0, 0.0, 0.0, 0.0, 0.0, 1.7400577267673488E9, 0.0, 2025-02-20 13:22:06.767
22.0, 10.761562122497708, -165.86830293480307, 13.981615984346718, -354.2227543531917, 0.0, -0.01600000075995922, 1.008000047877431, 0.0, 0.0, 0.0, 0.0, 0.0, 1.7400577267675772E9, 0.0, 2025-02-20 13:22:06.767
22.0, 182.83809898374602, -37.642093054018915, 11.644178512040526, -132.8075873265043, 0.0, -0.01600000075995922, 1.008000047877431, 0.0, 0.0, 0.0, 0.0, 0.0, 1.7400577267676456E9, 0.0, 2025-02-20 13:22:06.767
23.0, 8.972019993700087, -227.18957255827263, 10.582046924624592, -128.2823083801195, 0.0, -0.01600000075995922, 1.008000047877431, 0.0, 0.0, 0.0, 0.0, 0.0, 1.740057726796373E9, 0.0, 2025-02-20 13:22:06.796
23.0, -165.73740643635392, -362.8955823504366, 17.44102344335988, -352.554758972954, 0.0, -0.01600000075995922, 1.008000047877431, 0.0, 0.0, 0.0, 0.0, 0.0, 1.7400577267964313E9, 0.0, 2025-02-20 13:22:06.796
24.0, 7.268495563883334, -161.94514788128436, 10.705463623162359, -351.1896954891272, 0.0, -0.01600000075995922, 1.008000047877431, 0.0, 0.0, 0.0, 0.0, 0.0, 1.7400577267968318E9, 0.0, 2025-02-20 13:22:06.796
24.0, 177.55362034635618, -25.536036897450686, 10.862539421301335, -131.34154654387385, 0.0, -0.01600000075995922, 1.008000047877431, 0.0, 0.0, 0.0, 0.0, 0.0, 1.7400577267968857E9, 0.0, 2025-02-20 13:22:06.796
25.0, 9.409588288515806, -223.81992269819602, 11.49832241376862, -132.99832222424448, 0.0, -0.01600000075995922, 1.008000047877431, 0.0, 0.0, 0.0, 0.0, 0.0, 1.7400577267975168E9, 0.0, 2025-02-20 13:22:06.797
25.0, -159.0018466161564, -352.65199637180194, 11.801254310179502, -354.01705985562876, 0.0, -0.01600000075995922, 1.008000047877431, 0.0, 0.0, 0.0, 0.0, 0.0, 1.7400577267975724E9, 0.0, 2025-02-20 13:22:06.797
26.0, 25.53416694747284, -158.7400536192581, 9.811627533752471, -357.95143460901454, 0.0, -0.01600000075995922, 1.008000047877431, 0.0, 0.0, 0.0, 0.0, 0.0, 1.7400577267983184E9, 0.0, 2025-02-20 13:22:06.798
26.0, 183.45144257647917, -33.217791406437755, 13.024201595690101, -142.42661001253873, 0.0, -0.01600000075995922, 1.008000047877431, 0.0, 0.0, 0.0, 0.0, 0.0, 1.7400577267983613E9, 0.0, 2025-02-20 13:22:06.798
27.0, 16.12644860893488, -228.52845674240962, 8.973889943677932, -142.00774121750146, 0.0, -0.01600000075995922, 1.008000047877431, 0.0, 0.0, 0.0, 0.0, 0.0, 1.7400577268266098E9, 0.0, 2025-02-20 13:22:06.826
27.0, -158.94574811682105, -361.91198866209015, 11.10189301846549, -358.86771009815857, 0.0, -0.01600000075995922, 1.008000047877431, 0.0, 0.0, 0.0, 0.0, 0.0, 1.740057726826734E9, 0.0, 2025-02-20 13:22:06.826
28.0, 25.93059634277597, -164.89966884627938, 15.402777967508882, -356.8219848223962, 0.0, -0.01600000075995922, 1.008000047877431, 0.0, 0.0, 0.0, 0.0, 0.0, 1.7400577268270128E9, 0.0, 2025-02-20 13:22:06.827
28.0, 181.5141743994318, -37.03996916115284, 7.081500566098839, -126.97708329558372, 0.0, -0.01600000075995922, 1.008000047877431, 0.0, 0.0, 0.0, 0.0, 0.0, 1.7400577268270564E9, 0.0, 2025-02-20 13:22:06.827
29.0, 10.277245078235865, -229.44099233159795, 13.121438994538039, -123.77572893351316, 0.0, -0.01600000075995922, 1.008000047877431, 0.0, 0.0, 0.0, 0.0, 0.0, 1.740057726856711E9, 0.0, 2025-02-20 13:22:06.856
29.0, -147.10148495715111, -362.2971983575262, 14.983909172471613, -351.61604408407584, 0.0, -0.01600000075995922, 1.008000047877431, 0.0, 0.0, 0.0, 0.0, 0.0, 1.7400577268567631E9, 0.0, 2025-02-20 13:22:06.856
30.0, 27.673389722127467, -167.77191201224923, 10.855059621389955, -354.98569394415244, 0.0, -0.01600000075995922, 1.008000047877431, 0.0, 0.0, 0.0, 0.0, 0.0, 1.7400577268569405E9, 0.0, 2025-02-20 13:22:06.856
30.0, 187.83460532454774, -40.009449725970626, 8.820554045494646, -126.93594439607114, 0.0, -0.01600000075995922, 1.008000047877431, 0.0, 0.0, 0.0, 0.0, 0.0, 1.7400577268569725E9, 0.0, 2025-02-20 13:22:06.856
31.0, 16.769711401313543, -233.78301618015394, 9.957483632024378, -131.68561733979732, 0.0, -0.01600000075995922, 1.008000047877431, 0.0, 0.0, 0.0, 0.0, 0.0, 1.7400577268579154E9, 0.0, 2025-02-20 13:22:06.857
31.0, -150.5571525162086, -361.4856400671415, 15.140984970610589, -346.94864893937483, 0.0, -0.01600000075995922, 1.008000047877431, 0.0, 0.0, 0.0, 0.0, 0.0, 1.740057726857972E9, 0.0, 2025-02-20 13:22:06.857
32.0, 20.133751411456615, -163.34387046471238, 12.938183896709234, -347.561992532108, 0.0, -0.01600000075995922, 1.008000047877431, 0.0, 0.0, 0.0, 0.0, 0.0, 1.74005772685852E9, 0.0, 2025-02-20 13:22:06.858
32.0, 172.1793841100298, -43.74934968166053, 9.175844541285187, -127.31367429159582, 0.0, -0.01600000075995922, 1.008000047877431, 0.0, 0.0, 0.0, 0.0, 0.0, 1.7400577268585737E9, 0.0, 2025-02-20 13:22:06.858
33.0, 9.26747209019959, -236.81233514426276, 14.082593283150345, -126.3188609033823, 0.0, -0.01600000075995922, 1.008000047877431, 0.0, 0.0, 0.0, 0.0, 0.0, 1.7400577268865998E9, 0.0, 2025-02-20 13:22:06.886
33.0, -160.46788739878684, -362.9367212499492, 12.829726797994226, -345.7668405533768, 0.0, -0.01600000075995922, 1.008000047877431, 0.0, 0.0, 0.0, 0.0, 0.0, 1.7400577268868794E9, 0.0, 2025-02-20 13:22:06.886
34.0, 13.357052691746503, -172.98907245043665, 9.89016543282196, -346.5073407446034, 0.0, -0.01600000075995922, 1.008000047877431, 0.0, 0.0, 0.0, 0.0, 0.0, 1.7400577268871906E9, 0.0, 2025-02-20 13:22:06.887
34.0, 173.52200819412246, -49.93140430841595, 9.0599076426588, -121.7262637577951, 0.0, -0.01600000075995922, 1.008000047877431, 0.0, 0.0, 0.0, 0.0, 0.0, 1.7400577268872602E9, 0.0, 2025-02-20 13:22:06.887
35.0, 9.024378593079746, -243.3534201667644, 11.322547115851194, -128.33092707954347, 0.0, -0.01600000075995922, 1.008000047877431, 0.0, 0.0, 0.0, 0.0, 0.0, 1.740057726916732E9, 0.0, 2025-02-20 13:22:06.916
35.0, -162.42011517565697, -371.80402404488996, 14.026494783814996, -343.4481025808491, 0.0, -0.01600000075995922, 1.008000047877431, 0.0, 0.0, 0.0, 0.0, 0.0, 1.7400577269168415E9, 0.0, 2025-02-20 13:22:06.916
36.0, 9.235682940576226, -179.05145027861, 13.50290879001841, -338.9639625339769, 0.0, -0.01600000075995922, 1.008000047877431, 0.0, 0.0, 0.0, 0.0, 0.0, 1.7400577269171069E9, 0.0, 2025-02-20 13:22:06.917
36.0, 163.97404360724613, -56.951196525245905, 11.834913409780711, -113.70043845288455, 0.0, -0.01600000075995922, 1.008000047877431, 0.0, 0.0, 0.0, 0.0, 0.0, 1.7400577269172804E9, 0.0, 2025-02-20 13:22:06.917
37.0, -10.097729880362749, -253.25667524943128, 9.269342040177435, -124.27687552757561, 0.0, -0.01600000075995922, 1.008000047877431, 0.0, 0.0, 0.0, 0.0, 0.0, 1.7400577269177053E9, 0.0, 2025-02-20 13:22:06.917
37.0, -156.17448224965483, -367.72379319323227, 14.591219677124172, -350.34447809914127, 0.0, -0.01600000075995922, 1.008000047877431, 0.0, 0.0, 0.0, 0.0, 0.0, 1.7400577269178696E9, 0.0, 2025-02-20 13:22:06.917
38.0, 13.09525969484821, -167.64849531371146, 10.29407462803647, -357.0314192199148, 0.0, -0.01600000075995922, 1.008000047877431, 0.0, 0.0, 0.0, 0.0, 0.0, 1.740057726918593E9, 0.0, 2025-02-20 13:22:06.918
38.0, 175.37699857214466, -46.445817549712956, 13.020461695734411, -138.82882625516504, 0.0, -0.01600000075995922, 1.008000047877431, 0.0, 0.0, 0.0, 0.0, 0.0, 1.7400577269186418E9, 0.0, 2025-02-20 13:22:06.918
39.0, 5.119923039339483, -233.8353747795336, 11.625479012262076, -139.27013444993645, 0.0, -0.01600000075995922, 1.008000047877431, 0.0, 0.0, 0.0, 0.0, 0.0, 1.740057726946561E9, 0.0, 2025-02-20 13:22:06.946
39.0, -148.98265463486314, -362.6749282530509, 15.174644070211798, -349.4843011093326, 0.0, -0.01600000075995922, 1.008000047877431, 0.0, 0.0, 0.0, 0.0, 0.0, 1.7400577269466126E9, 0.0, 2025-02-20 13:22:06.946
40.0, 13.674944187980145, -169.7428392888978, 11.150511717889458, -346.0772522496991, 0.0, -0.01600000075995922, 1.008000047877431, 0.0, 0.0, 0.0, 0.0, 0.0, 1.7400577269471693E9, 0.0, 2025-02-20 13:22:06.947
40.0, 171.71189661556855, -46.038168454542756, 7.926717956084758, -114.97200443781912, 0.0, -0.01600000075995922, 1.008000047877431, 0.0, 0.0, 0.0, 0.0, 0.0, 1.7400577269472084E9, 0.0, 2025-02-20 13:22:06.947
41.0, 5.0526048401370645, -233.78301618015394, 11.288888016249985, -128.33092707954347, 0.0, -0.01600000075995922, 1.008000047877431, 0.0, 0.0, 0.0, 0.0, 0.0, 1.740057726976457E9, 0.0, 2025-02-20 13:22:06.976
41.0, -162.69312787242234, -365.4574138200842, 17.190450146328658, -341.6305112023838, 0.0, -0.01600000075995922, 1.008000047877431, 0.0, 0.0, 0.0, 0.0, 0.0, 1.7400577269765136E9, 0.0, 2025-02-20 13:22:06.976
42.0, 5.43220468563959, -181.70303934719414, 10.174397829454392, -341.7838471005671, 0.0, -0.01600000075995922, 1.008000047877431, 0.0, 0.0, 0.0, 0.0, 0.0, 1.740057726976859E9, 0.0, 2025-02-20 13:22:06.976
42.0, 163.03906861832365, -55.15978444647044, 7.758422458078712, -120.67161197029054, 0.0, -0.01600000075995922, 1.008000047877431, 0.0, 0.0, 0.0, 0.0, 0.0, 1.7400577269769115E9, 0.0, 2025-02-20 13:22:06.976
43.0, 4.596337045542896, -248.86977260140702, 10.63814542395994, -129.5015157656744, 0.0, -0.01600000075995922, 1.008000047877431, 0.0, 0.0, 0.0, 0.0, 0.0, 1.7400577269777207E9, 0.0, 2025-02-20 13:22:06.977
43.0, -163.25411286577582, -364.7879717280157, 10.196837229188532, -350.0452861026861, 0.0, -0.01600000075995922, 1.008000047877431, 0.0, 0.0, 0.0, 0.0, 0.0, 1.7400577269777646E9, 0.0, 2025-02-20 13:22:06.977
44.0, 0.5965140429325402, -180.33423596341163, 14.336906480137259, -342.5505265914835, 0.0, -0.01600000075995922, 1.008000047877431, 0.0, 0.0, 0.0, 0.0, 0.0, 1.7400577269786544E9, 0.0, 2025-02-20 13:22:06.978
44.0, 165.4662636895664, -57.52340121846646, 11.625479012262076, -120.83242766838521, 0.0, -0.01600000075995922, 1.008000047877431, 0.0, 0.0, 0.0, 0.0, 0.0, 1.7400577269787784E9, 0.0, 2025-02-20 13:22:06.978
45.0, 4.596337045542896, -237.19006503978744, 10.488549425732344, -128.5478412769735, 0.0, -0.01600000075995922, 1.008000047877431, 0.0, 0.0, 0.0, 0.0, 0.0, 1.7400577270065336E9, 0.0, 2025-02-20 13:22:07.006
45.0, -167.0837704204023, -373.29624412721023, 20.227248910348862, -341.19294290756807, 0.0, -0.01600000075995922, 1.008000047877431, 0.0, 0.0, 0.0, 0.0, 0.0, 1.740057727006594E9, 0.0, 2025-02-20 13:22:07.006
46.0, 3.738030005712062, -183.25135792884976, 16.225555957760662, -336.38717146450654, 0.0, -0.01600000075995922, 1.008000047877431, 0.0, 0.0, 0.0, 0.0, 0.0, 1.7400577270072932E9, 0.0, 2025-02-20 13:22:07.007
46.0, 160.60065384721383, -54.26220845710486, 12.837206597905606, -118.08360120095313, 0.0, -0.01600000075995922, 1.008000047877431, 0.0, 0.0, 0.0, 0.0, 0.0, 1.7400577270075605E9, 0.0, 2025-02-20 13:22:07.007
47.0, 3.579084257595241, -230.9070331142284, 13.85819928580895, -128.7310963748023, 0.0, -0.01600000075995922, 1.008000047877431, 0.0, 0.0, 0.0, 0.0, 0.0, 1.740057727037426E9, 0.0, 2025-02-20 13:22:07.037
47.0, -158.1491494262591, -357.80557851074263, 15.040007671806961, -350.299599299673, 0.0, -0.01600000075995922, 1.008000047877431, 0.0, 0.0, 0.0, 0.0, 0.0, 1.7400577270375288E9, 0.0, 2025-02-20 13:22:07.037
48.0, 8.401685250457376, -166.90799512248486, 10.077160430606455, -339.42771012848243, 0.0, -0.01600000075995922, 1.008000047877431, 0.0, 0.0, 0.0, 0.0, 0.0, 1.7400577270376759E9, 0.0, 2025-02-20 13:22:07.037
48.0, 158.8316811681725, -42.97893029078841, 12.459476702380925, -122.08903405349702, 0.0, -0.01600000075995922, 1.008000047877431, 0.0, 0.0, 0.0, 0.0, 0.0, 1.7400577270377312E9, 0.0, 2025-02-20 13:22:07.037
49.0, 2.210280873812735, -227.2718503572978, 13.51038858992979, -124.15345882903785, 0.0, -0.01600000075995922, 1.008000047877431, 0.0, 0.0, 0.0, 0.0, 0.0, 1.7400577270382333E9, 0.0, 2025-02-20 13:22:07.038
49.0, -151.15179660916328, -350.3631775989197, 11.730196211021394, -344.64861046662554, 0.0, -0.01600000075995922, 1.008000047877431, 0.0, 0.0, 0.0, 0.0, 0.0, 1.7400577270382824E9, 0.0, 2025-02-20 13:22:07.038
50.0, 5.275128887500614, -174.05120403785259, 13.353312791790813, -342.79735998855904, 0.0, -0.01600000075995922, 0.9920000471174717, 0.0, 0.0, 0.0, 0.0, 0.0, 1.7400577270384953E9, 0.0, 2025-02-20 13:22:07.038
50.0, 163.5402152123861, -47.45185063779354, 8.536321648862213, -115.7237243289128, 0.0, -0.01600000075995922, 0.9920000471174717, 0.0, 0.0, 0.0, 0.0, 0.0, 1.7400577270386312E9, 0.0, 2025-02-20 13:22:07.038
51.0, 1.0995305869728327, -233.58480148250237, 9.317960739601403, -125.49608291313052, 0.0, 0.0, 0.9920000471174717, 0.0, 0.0, 0.0, 0.0, 0.0, 1.7400577270668547E9, 0.0, 2025-02-20 13:22:07.066
51.0, -158.9307885169983, -359.2304803938605, 20.38058480853215, -344.3755977698602, 0.0, 0.0, 0.9920000471174717, 0.0, 0.0, 0.0, 0.0, 0.0, 1.740057727066975E9, 0.0, 2025-02-20 13:22:07.066
52.0, 6.524255472701043, -173.0414310498163, 13.09525969484821, -341.05082670925185, 0.0, 0.0, 0.9920000471174717, 0.0, 0.0, 0.0, 0.0, 0.0, 1.7400577270672638E9, 0.0, 2025-02-20 13:22:07.067
52.0, 162.40328562585637, -49.14602531772107, 17.96086953720078, -122.66871854662895, 0.0, 0.0, 0.9920000471174717, 0.0, 0.0, 0.0, 0.0, 0.0, 1.7400577270673153E9, 0.0, 2025-02-20 13:22:07.067
53.0, 4.069011151790619, -222.7540512108244, 11.632958812173456, -127.7662021862343, 0.0, 0.0, 0.9920000471174717, 0.0, 0.0, 0.0, 0.0, 0.0, 1.7400577270965488E9, 0.0, 2025-02-20 13:22:07.096
53.0, -158.78493241872638, -357.01645962009206, 10.855059621389955, -345.4377293572761, 0.0, 0.0, 0.9920000471174717, 0.0, 0.0, 0.0, 0.0, 0.0, 1.7400577270966187E9, 0.0, 2025-02-20 13:22:07.096
54.0, 7.799561357591301, -175.67058071866632, 8.532581748906523, -334.476082587149, 0.0, 0.0, 0.9920000471174717, 0.0, 0.0, 0.0, 0.0, 0.0, 1.740057727097036E9, 0.0, 2025-02-20 13:22:07.097
54.0, 156.30350879812613, -57.98714881297201, 10.092120030429214, -118.30799519829452, 0.0, 0.0, 0.9920000471174717, 0.0, 0.0, 0.0, 0.0, 0.0, 1.7400577270970836E9, 0.0, 2025-02-20 13:22:07.097
55.0, -4.506579446606338, -232.52640979504213, 9.138445541728288, -130.12233915831894, 0.0, 0.0, 0.9920000471174717, 0.0, 0.0, 0.0, 0.0, 0.0, 1.7400577270974965E9, 0.0, 2025-02-20 13:22:07.097
55.0, -155.1871486613527, -358.5198994022794, 13.252335492987186, -349.86577090481296, 0.0, 0.0, 0.9920000471174717, 0.0, 0.0, 0.0, 0.0, 0.0, 1.7400577270975294E9, 0.0, 2025-02-20 13:22:07.097
56.0, 0.6675721420906484, -170.97700627427548, 9.736829534638673, -341.24156160699204, 0.0, 0.0, 0.9920000471174717, 0.0, 0.0, 0.0, 0.0, 0.0, 1.7400577270982969E9, 0.0, 2025-02-20 13:22:07.098
56.0, 159.04111556569114, -45.11441316548735, 12.792327798437327, -124.53118872456253, 0.0, 0.0, 0.9920000471174717, 0.0, 0.0, 0.0, 0.0, 0.0, 1.7400577270983276E9, 0.0, 2025-02-20 13:22:07.098
57.0, -4.192427850328386, -236.32240825006738, 9.007549043279141, -140.5865792343393, 0.0, 0.0, 0.9920000471174717, 0.0, 0.0, 0.0, 0.0, 0.0, 1.7400577271272273E9, 0.0, 2025-02-20 13:22:07.127
57.0, -156.57091164495796, -358.09355080733076, 12.122885706368834, -353.4186758627184, 0.0, 0.0, 0.9920000471174717, 0.0, 0.0, 0.0, 0.0, 0.0, 1.7400577271273305E9, 0.0, 2025-02-20 13:22:07.127
58.0, 4.063401301857084, -169.13323559612036, 10.110819530207664, -350.3669174988754, 0.0, 0.0, 0.9920000471174717, 0.0, 0.0, 0.0, 0.0, 0.0, 1.7400577271340723E9, 0.0, 2025-02-20 13:22:07.134
58.0, 158.33801437402144, -56.01996143627912, 8.543801448773593, -128.8021544739604, 0.0, 0.0, 0.9920000471174717, 0.0, 0.0, 0.0, 0.0, 0.0, 1.7400577271341817E9, 0.0, 2025-02-20 13:22:07.134
59.0, 11.488972663879395, -233.93261217838153, 9.815367433708161, -144.19932259153575, 0.0, 0.0, 0.9920000471174717, 0.0, 0.0, 0.0, 0.0, 0.0, 1.7400577271572235E9, 0.0, 2025-02-20 13:22:07.157
59.0, -143.52240069955587, -357.4428082150407, 14.729595975484699, -358.9574676970951, 0.0, 0.0, 0.9920000471174717, 0.0, 0.0, 0.0, 0.0, 0.0, 1.740057727157286E9, 0.0, 2025-02-20 13:22:07.157
60.0, 7.896798756439239, -180.4539127619937, 7.694844158831984, -355.0118732438423, 0.0, 0.0, 0.9920000471174717, 0.0, 0.0, 0.0, 0.0, 0.0, 1.7400577271574943E9, 0.0, 2025-02-20 13:22:07.157
60.0, 160.25284315133467, -59.1390379993245, 8.345586751122028, -128.77223527431488, 0.0, 0.0, 0.9920000471174717, 0.0, 0.0, 0.0, 0.0, 0.0, 1.7400577271575856E9, 0.0, 2025-02-20 13:22:07.157
61.0, 11.040184669196606, -235.15929936384782, 14.6921969759278, -143.76175429672003, 0.0, -0.01600000075995922, 0.9920000471174717, 0.0, 0.0, 0.0, 0.0, 0.0, 1.7400577271577485E9, 0.0, 2025-02-20 13:22:07.157
61.0, -149.8839705241844, -358.57973780157045, 13.330873392056674, -363.79689823975787, 0.0, -0.01600000075995922, 0.9920000471174717, 0.0, 0.0, 0.0, 0.0, 0.0, 1.7400577271578038E9, 0.0, 2025-02-20 13:22:07.157
62.0, 7.593866860028356, -178.62884158361703, 14.366825679782778, -353.35883746342734, 0.0, -0.01600000075995922, 0.9920000471174717, 0.0, 0.0, 0.0, 0.0, 0.0, 1.7400577271583068E9, 0.0, 2025-02-20 13:22:07.158
62.0, 161.74132333369926, -68.19333579204977, 8.465263549704105, -128.22620988078415, 0.0, -0.01600000075995922, 0.9920000471174717, 0.0, 0.0, 0.0, 0.0, 0.0, 1.7400577271583474E9, 0.0, 2025-02-20 13:22:07.158
63.0, 13.216806443408132, -231.49045750731602, 10.309034227859229, -138.88866465445608, 0.0, -0.01600000075995922, 0.9920000471174717, 0.0, 0.0, 0.0, 0.0, 0.0, 1.7400577271862955E9, 0.0, 2025-02-20 13:22:07.186
63.0, -145.89723717141896, -356.09270433103666, 16.046040759887546, -354.98943384410813, 0.0, -0.01600000075995922, 0.9920000471174717, 0.0, 0.0, 0.0, 0.0, 0.0, 1.7400577271863947E9, 0.0, 2025-02-20 13:22:07.186
64.0, 10.178137729410082, -173.09752954915166, 12.979322796221823, -343.810872876551, 0.0, -0.01600000075995922, 0.9920000471174717, 0.0, 0.0, 0.0, 0.0, 0.0, 1.740057727187013E9, 0.0, 2025-02-20 13:22:07.187
64.0, 162.06669462984428, -52.37729887943715, 8.68591764708981, -134.34094630833715, 0.0, -0.01600000075995922, 0.9920000471174717, 0.0, 0.0, 0.0, 0.0, 0.0, 1.7400577271870613E9, 0.0, 2025-02-20 13:22:07.187
65.0, -0.9611542886123061, -233.36040748516098, 13.304694092366844, -138.79890705551952, 0.0, -0.01600000075995922, 0.9920000471174717, 0.0, 0.0, 0.0, 0.0, 0.0, 1.7400577272166977E9, 0.0, 2025-02-20 13:22:07.216
65.0, -138.46231605950743, -349.5179602089338, 14.781954574864358, -355.83839113404974, 0.0, -0.01600000075995922, 0.9920000471174717, 0.0, 0.0, 0.0, 0.0, 0.0, 1.7400577272167857E9, 0.0, 2025-02-20 13:22:07.216
66.0, 14.636098476592451, -167.4876796156168, 12.732489399146289, -357.91777550941333, 0.0, -0.01600000075995922, 0.9920000471174717, 0.0, 0.0, 0.0, 0.0, 0.0, 1.740057727216937E9, 0.0, 2025-02-20 13:22:07.216
66.0, 156.40822599688545, -50.907518196851015, 11.09067331859842, -145.5531663754955, 0.0, -0.01600000075995922, 0.9920000471174717, 0.0, 0.0, 0.0, 0.0, 0.0, 1.7400577272169764E9, 0.0, 2025-02-20 13:22:07.216
67.0, 13.916167735122144, -224.32106929225847, 8.917791444342583, -160.78951879497617, 0.0, -0.01600000075995922, 0.9920000471174717, 0.0, 0.0, 0.0, 0.0, 0.0, 1.7400577272175672E9, 0.0, 2025-02-20 13:22:07.217
67.0, -135.64243149291724, -345.0001610624604, 14.27706808084622, -379.8335892497562, 0.0, -0.01600000075995922, 0.9920000471174717, 0.0, 0.0, 0.0, 0.0, 0.0, 1.7400577272176049E9, 0.0, 2025-02-20 13:22:07.217
68.0, 2.978830314707011, -172.24857225921005, 14.752035375218838, -370.8241702564992, 0.0, -0.01600000075995922, 0.9920000471174717, 0.0, 0.0, 0.0, 0.0, 0.0, 1.740057727218465E9, 0.0, 2025-02-20 13:22:07.218
68.0, 154.48965731961653, -57.759014915674925, 9.86398613313213, -136.49512868281454, 0.0, -0.01600000075995922, 0.9920000471174717, 0.0, 0.0, 0.0, 0.0, 0.0, 1.740057727218502E9, 0.0, 2025-02-20 13:22:07.218
69.0, 7.962247005663812, -225.0540896835737, 13.364532491657883, -140.64267773367465, 0.0, -0.01600000075995922, 0.9920000471174717, 0.0, 0.0, 0.0, 0.0, 0.0, 1.7400577272464402E9, 0.0, 2025-02-20 13:22:07.246
69.0, -142.9614157062024, -349.39454351039603, 16.33401305647567, -363.9352745381184, 0.0, -0.01600000075995922, 0.9920000471174717, 0.0, 0.0, 0.0, 0.0, 0.0, 1.7400577272464993E9, 0.0, 2025-02-20 13:22:07.246
70.0, 6.916944968048483, -176.53449760843068, 11.662878011818975, -343.8557516760193, 0.0, -0.01600000075995922, 0.9920000471174717, 0.0, 0.0, 0.0, 0.0, 0.0, 1.7400577272470994E9, 0.0, 2025-02-20 13:22:07.247
70.0, 160.00974965421483, -53.15893797017634, 9.265602140221745, -128.7984145740047, 0.0, -0.01600000075995922, 0.9920000471174717, 0.0, 0.0, 0.0, 0.0, 0.0, 1.7400577272471347E9, 0.0, 2025-02-20 13:22:07.247
71.0, 14.151781432330608, -223.47585190227255, 8.61859944788739, -148.01402054633945, 0.0, -0.01600000075995922, 0.9920000471174717, 0.0, 0.0, 0.0, 0.0, 0.0, 1.7400577272763555E9, 0.0, 2025-02-20 13:22:07.276
71.0, -133.70516331586987, -349.3982834103517, 18.626571729313582, -363.46404714370146, 0.0, -0.01600000075995922, 0.9920000471174717, 0.0, 0.0, 0.0, 0.0, 0.0, 1.7400577272764127E9, 0.0, 2025-02-20 13:22:07.276
72.0, -0.3982993452809751, -170.98822597414255, 12.384678703267127, -346.2156285480596, 0.0, -0.01600000075995922, 0.9920000471174717, 0.0, 0.0, 0.0, 0.0, 0.0, 1.740057727276802E9, 0.0, 2025-02-20 13:22:07.276
72.0, 156.5765214948915, -56.25931503344327, 6.22506347624585, -130.2457558568567, 0.0, -0.01600000075995922, 0.9920000471174717, 0.0, 0.0, 0.0, 0.0, 0.0, 1.740057727276834E9, 0.0, 2025-02-20 13:22:07.276
73.0, 7.928587906062603, -223.95829899655655, 11.700277011375874, -144.31899939011782, 0.0, -0.01600000075995922, 0.9920000471174717, 0.0, 0.0, 0.0, 0.0, 0.0, 1.7400577272774923E9, 0.0, 2025-02-20 13:22:07.277
73.0, -146.29740646667778, -343.35460508195683, 12.085486706811935, -354.6678024479188, 0.0, -0.01600000075995922, 0.9920000471174717, 0.0, 0.0, 0.0, 0.0, 0.0, 1.74005772727763E9, 0.0, 2025-02-20 13:22:07.277
74.0, 7.369472862686962, -174.0811232374981, 13.11395919462666, -341.0657863090746, 0.0, -0.01600000075995922, 0.9920000471174717, 0.0, 0.0, 0.0, 0.0, 0.0, 1.7400577272785845E9, 0.0, 2025-02-20 13:22:07.278
74.0, 145.68967272387818, -53.92187756113708, 12.201423605438322, -126.93594439607114, 0.0, -0.01600000075995922, 0.9920000471174717, 0.0, 0.0, 0.0, 0.0, 0.0, 1.7400577272786443E9, 0.0, 2025-02-20 13:22:07.278
75.0, 3.3172912606969476, -223.89472069730982, 9.534874937031418, -134.44192360714078, 0.0, -0.01600000075995922, 0.9920000471174717, 0.0, 0.0, 0.0, 0.0, 0.0, 1.740057727306564E9, 0.0, 2025-02-20 13:22:07.306
75.0, -140.30234683770686, -343.8520117760636, 15.432697167154402, -356.65368932439014, 0.0, -0.01600000075995922, 0.9920000471174717, 0.0, 0.0, 0.0, 0.0, 0.0, 1.7400577273072624E9, 0.0, 2025-02-20 13:22:07.307
76.0, 0.15894574811682105, -175.99221211485565, 10.204317029099911, -340.9236701107584, 0.0, -0.01600000075995922, 0.9920000471174717, 0.0, 0.0, 0.0, 0.0, 0.0, 1.740057727307655E9, 0.0, 2025-02-20 13:22:07.307
76.0, 147.5334434020333, -51.88363208528608, 6.827187369111925, -116.72601751703769, 0.0, -0.01600000075995922, 0.9920000471174717, 0.0, 0.0, 0.0, 0.0, 0.0, 1.74005772730771E9, 0.0, 2025-02-20 13:22:07.307
77.0, 1.2603462850674987, -215.33782959869131, 11.027095019351691, -135.70600979216397, 0.0, -0.01600000075995922, 0.9920000471174717, 0.0, 0.0, 0.0, 0.0, 0.0, 1.7400577273364837E9, 0.0, 2025-02-20 13:22:07.336
77.0, -145.65414367429912, -329.1018463508226, 14.976429372560233, -348.2950129234232, 0.0, -0.01600000075995922, 0.9920000471174717, 0.0, 0.0, 0.0, 0.0, 0.0, 1.7400577273366148E9, 0.0, 2025-02-20 13:22:07.336
78.0, -2.2271104236133397, -168.97615979798138, 11.113112718332559, -334.93983018165454, 0.0, -0.01600000075995922, 0.9920000471174717, 0.0, 0.0, 0.0, 0.0, 0.0, 1.740057727336748E9, 0.0, 2025-02-20 13:22:07.336
78.0, 159.26550956303254, -52.066887183114886, 11.991989207919687, -114.27264314610511, 0.0, -0.01600000075995922, 0.9920000471174717, 0.0, 0.0, 0.0, 0.0, 0.0, 1.7400577273367865E9, 0.0, 2025-02-20 13:22:07.336
79.0, 6.9038553182035685, -223.87976109748706, 12.545494401361793, -131.20317024551332, 0.0, -0.01600000075995922, 0.9920000471174717, 0.0, 0.0, 0.0, 0.0, 0.0, 1.7400577273374891E9, 0.0, 2025-02-20 13:22:07.337
79.0, -151.43602900579572, -341.31635960610583, 18.888364726211876, -347.6367905312218, 0.0, -0.01600000075995922, 0.9920000471174717, 0.0, 0.0, 0.0, 0.0, 0.0, 1.740057727337692E9, 0.0, 2025-02-20 13:22:07.337
80.0, 7.6686648591421545, -170.44220058061182, 14.778214674908668, -334.2816077894531, 0.0, -0.01600000075995922, 1.008000047877431, 0.0, 0.0, 0.0, 0.0, 0.0, 1.7400577273386314E9, 0.0, 2025-02-20 13:22:07.338
80.0, 147.68677930021659, -61.2520814742893, 8.401685250457376, -116.61382051836699, 0.0, -0.01600000075995922, 1.008000047877431, 0.0, 0.0, 0.0, 0.0, 0.0, 1.7400577273386652E9, 0.0, 2025-02-20 13:22:07.338
81.0, 18.329249682836235, -220.53629053710029, 12.044347807299346, -133.11425912287086, 0.0, -0.01600000075995922, 1.008000047877431, 0.0, 0.0, 0.0, 0.0, 0.0, 1.7400577273667967E9, 0.0, 2025-02-20 13:22:07.366
81.0, -132.762708527036, -327.89385866513476, 15.93010386126116, -349.2561672120355, 0.0, -0.01600000075995922, 1.008000047877431, 0.0, 0.0, 0.0, 0.0, 0.0, 1.740057727366891E9, 0.0, 2025-02-20 13:22:07.366
82.0, 3.902585603762418, -174.33543643448502, 14.108772582840174, -333.6159055973403, 0.0, -0.01600000075995922, 1.008000047877431, 0.0, 0.0, 0.0, 0.0, 0.0, 1.7400577273673532E9, 0.0, 2025-02-20 13:22:07.367
82.0, 143.28865695232525, -60.919230378232896, 10.798961122054607, -123.24840303976089, 0.0, -0.01600000075995922, 1.008000047877431, 0.0, 0.0, 0.0, 0.0, 0.0, 1.7400577273674016E9, 0.0, 2025-02-20 13:22:07.367
83.0, 10.08277028053999, -226.50517086638138, 3.9212851035408676, -145.0370601816103, 0.0, -0.01600000075995922, 1.008000047877431, 0.0, 0.0, 0.0, 0.0, 0.0, 1.7400577273967228E9, 0.0, 2025-02-20 13:22:07.396
83.0, -131.4350440427661, -335.0370675805025, 14.561300477478653, -355.57285823719576, 0.0, -0.01600000075995922, 1.008000047877431, 0.0, 0.0, 0.0, 0.0, 0.0, 1.7400577273968377E9, 0.0, 2025-02-20 13:22:07.396
84.0, 12.29866100428626, -178.07159649021924, 12.30988070415333, -338.60867203818634, 0.0, -0.01600000075995922, 1.008000047877431, 0.0, 0.0, 0.0, 0.0, 0.0, 1.740057727397434E9, 0.0, 2025-02-20 13:22:07.397
84.0, 154.36250072112307, -64.47213533613831, 12.6539515000768, -124.00760273076594, 0.0, -0.01600000075995922, 1.008000047877431, 0.0, 0.0, 0.0, 0.0, 0.0, 1.7400577273975978E9, 0.0, 2025-02-20 13:22:07.397
85.0, 8.960800293833017, -227.32794885663316, 14.239669081289321, -142.55750651098788, 0.0, -0.01600000075995922, 1.008000047877431, 0.0, 0.0, 0.0, 0.0, 0.0, 1.7400577273976989E9, 0.0, 2025-02-20 13:22:07.397
85.0, -127.36229299101979, -341.6679102019407, 12.594113100785762, -359.7353668878786, 0.0, -0.01600000075995922, 1.008000047877431, 0.0, 0.0, 0.0, 0.0, 0.0, 1.740057727397738E9, 0.0, 2025-02-20 13:22:07.397
