%OpenBCI Raw EXG Data
%Number of channels = 4
%Sample Rate = 200 Hz
%Board = OpenBCI_GUI$BoardGanglionNative
Sample Index, EXG Channel 0, EXG Channel 1, EXG Channel 2, EXG Channel 3, Accel Channel 0, Accel Channel 1, Accel Channel 2, Other, Other, Other, Other, Other, Timestamp, Marker Channel, Timestamp (Formatted)
0.0, 78.95302796456963, 15.041877621784806, 11.350596365518868, 60.49849163321778, 0.0, 0.0, 0.0, 0.0, 0.0, 0.0, 0.0, 0.0, 1.7411858905605843E9, 0.0, 2025-03-05 14:44:50.560
1.0, 39.31756823416799, -34.94562518596649, 15.464486316777766, 12.620292400475591, 0.0, -0.01600000075995922, 0.0, 0.0, 0.0, 0.0, 0.0, 0.0, 1.741185890560856E9, 0.0, 2025-03-05 14:44:50.560
1.0, -166.78831832390279, -215.6613309448585, 16.9716659989208, -154.02590972511098, 0.0, -0.01600000075995922, 0.0, 0.0, 0.0, 0.0, 0.0, 0.0, 1.7411858905609372E9, 0.0, 2025-03-05 14:44:50.560
2.0, -133.03572122380137, -166.39188892859966, 11.29075796622783, -108.5861252634786, -0.01600000075995922, -0.01600000075995922, 0.0, 0.0, 0.0, 0.0, 0.0, 0.0, 1.7411858905904624E9, 0.0, 2025-03-05 14:44:50.590
2.0, 83.51196601055562, 28.501777562312782, 10.815790671855211, 65.90638696914539, -0.01600000075995922, -0.01600000075995922, 0.0, 0.0, 0.0, 0.0, 0.0, 0.0, 1.7411858905905778E9, 0.0, 2025-03-05 14:44:50.590
3.0, 55.96386293694377, -20.88734125252813, 11.092543268576264, 24.838545555714518, -0.01600000075995922, -0.01600000075995922, 0.0, 0.0, 0.0, 0.0, 0.0, 0.0, 1.7411858905908785E9, 0.0, 2025-03-05 14:44:50.590
3.0, -185.25968420505524, -233.35479763522744, 15.053097321651876, -164.3181144031696, -0.01600000075995922, -0.01600000075995922, 0.0, 0.0, 0.0, 0.0, 0.0, 0.0, 1.741185890591041E9, 0.0, 2025-03-05 14:44:50.591
4.0, -130.71698325127363, -159.83584430627525, 12.794197748415172, -111.73512102616951, -0.01600000075995922, -0.01600000075995922, 0.0, 0.0, 0.0, 0.0, 0.0, 0.0, 1.7411858905915737E9, 0.0, 2025-03-05 14:44:50.591
4.0, 91.27599831856787, 33.76007690001279, 10.04911118093878, 70.26337041752413, -0.01600000075995922, -0.01600000075995922, 0.0, 0.0, 0.0, 0.0, 0.0, 0.0, 1.7411858905916283E9, 0.0, 2025-03-05 14:44:50.591
5.0, 43.98122347891331, -22.54411693289876, 18.987472075037658, 10.772781822364777, -0.01600000075995922, -0.01600000075995922, 0.0, 0.0, 0.0, 0.0, 0.0, 0.0, 1.741185890592258E9, 0.0, 2025-03-05 14:44:50.592
5.0, -170.41976118087769, -219.27781420201063, 15.28871101886034, -151.52765655471012, -0.01600000075995922, -0.01600000075995922, 0.0, 0.0, 0.0, 0.0, 0.0, 0.0, 1.741185890592339E9, 0.0, 2025-03-05 14:44:50.592
6.0, -122.11521335318685, -157.82377813011408, 11.978899558074772, -111.51072702882811, -0.01600000075995922, -0.01600000075995922, 0.0, 0.0, 0.0, 0.0, 0.0, 0.0, 1.741185890620492E9, 0.0, 2025-03-05 14:44:50.620
6.0, 76.48469399381429, 18.684540178626776, 12.782978048548102, 54.279038006905466, -0.01600000075995922, -0.01600000075995922, 0.0, 0.0, 0.0, 0.0, 0.0, 0.0, 1.74118589062055E9, 0.0, 2025-03-05 14:44:50.620
7.0, 48.81317422166467, -21.208972648717463, 13.31404384225607, 16.109619059134275, -0.01600000075995922, -0.01600000075995922, 0.0, 0.0, 0.0, 0.0, 0.0, 0.0, 1.7411858906207843E9, 0.0, 2025-03-05 14:44:50.620
7.0, -174.0138050382957, -223.05885305721313, 15.471966116689146, -160.2079643518664, -0.01600000075995922, -0.01600000075995922, 0.0, 0.0, 0.0, 0.0, 0.0, 0.0, 1.7411858906208563E9, 0.0, 2025-03-05 14:44:50.620
8.0, -128.22994978073984, -162.84272387064993, 10.43432087637484, -106.36088478984311, -0.01600000075995922, -0.01600000075995922, 0.0, 0.0, 0.0, 0.0, 0.0, 0.0, 1.741185890650567E9, 0.0, 2025-03-05 14:44:50.650
8.0, 90.29240463022143, 30.12863404303789, 13.429980740882456, 55.169134196359664, -0.01600000075995922, -0.01600000075995922, 0.0, 0.0, 0.0, 0.0, 0.0, 0.0, 1.7411858906506796E9, 0.0, 2025-03-05 14:44:50.650
9.0, 41.96915730275214, -25.917506692931056, 10.621315874159336, 12.485656002070755, -0.01600000075995922, -0.01600000075995922, 0.0, 0.0, 0.0, 0.0, 0.0, 0.0, 1.7411858906507657E9, 0.0, 2025-03-05 14:44:50.650
9.0, -168.38525560498238, -221.28240057826042, 14.271458230912685, -163.89176580822095, -0.01600000075995922, -0.01600000075995922, 0.0, 0.0, 0.0, 0.0, 0.0, 0.0, 1.7411858906508408E9, 0.0, 2025-03-05 14:44:50.650
10.0, -124.96875701937824, -165.2586992420256, 12.47256635222584, -118.25002674898133, -0.01600000075995922, -0.01600000075995922, 0.9920000471174717, 0.0, 0.0, 0.0, 0.0, 0.0, 1.7411858906514976E9, 0.0, 2025-03-05 14:44:50.651
10.0, 88.94230074621737, 28.412019963376224, 9.570403986610472, 58.69211995461956, -0.01600000075995922, -0.01600000075995922, 0.9920000471174717, 0.0, 0.0, 0.0, 0.0, 0.0, 1.7411858906515732E9, 0.0, 2025-03-05 14:44:50.651
11.0, 43.82040778081864, -24.98627160396427, 11.432874164544046, 12.092966506723315, -0.01600000075995922, -0.01600000075995922, 0.9920000471174717, 0.0, 0.0, 0.0, 0.0, 0.0, 1.7411858906522405E9, 0.0, 2025-03-05 14:44:50.652
11.0, -172.6749208541587, -230.35913777071983, 13.235505943186581, -161.47205053688958, -0.01600000075995922, -0.01600000075995922, 0.9920000471174717, 0.0, 0.0, 0.0, 0.0, 0.0, 1.7411858906523192E9, 0.0, 2025-03-05 14:44:50.652
12.0, -125.62697941157967, -162.46873387508094, 7.517198910936713, -114.2558135963045, -0.01600000075995922, -0.01600000075995922, 0.9920000471174717, 0.0, 0.0, 0.0, 0.0, 0.0, 1.7411858906803665E9, 0.0, 2025-03-05 14:44:50.680
12.0, 91.30965741816908, 31.482477826997638, 13.052250845357776, 59.155867549125105, -0.01600000075995922, -0.01600000075995922, 0.9920000471174717, 0.0, 0.0, 0.0, 0.0, 0.0, 1.741185890680529E9, 0.0, 2025-03-05 14:44:50.680
13.0, 38.09836084861308, -27.922093069180846, 14.832443224266171, 6.146525577176362, -0.01600000075995922, -0.01600000075995922, 0.9920000471174717, 0.0, 0.0, 0.0, 0.0, 0.0, 1.7411858906808412E9, 0.0, 2025-03-05 14:44:50.680
13.0, -185.74213129933923, -230.71068836655468, 11.64604846201837, -166.16562498128042, -0.01600000075995922, -0.01600000075995922, 0.9920000471174717, 0.0, 0.0, 0.0, 0.0, 0.0, 1.741185890680921E9, 0.0, 2025-03-05 14:44:50.680
14.0, -125.55592131242156, -156.04732565116137, 11.885402059182525, -108.90401675971225, -0.01600000075995922, -0.01600000075995922, 0.9920000471174717, 0.0, 0.0, 0.0, 0.0, 0.0, 1.7411858907106018E9, 0.0, 2025-03-05 14:44:50.710
14.0, 88.12700255587697, 33.04201610852033, 10.02667178120464, 56.732412377838045, -0.01600000075995922, -0.01600000075995922, 0.9920000471174717, 0.0, 0.0, 0.0, 0.0, 0.0, 1.741185890710673E9, 0.0, 2025-03-05 14:44:50.710
15.0, 35.28969598188996, -28.322262364439666, 6.84775681886822, 2.945171215105802, -0.01600000075995922, -0.01600000075995922, 0.9920000471174717, 0.0, 0.0, 0.0, 0.0, 0.0, 1.741185890710905E9, 0.0, 2025-03-05 14:44:50.710
15.0, -179.87422826886177, -224.57725243922323, 16.04791070986539, -170.9152979250066, -0.01600000075995922, -0.01600000075995922, 0.9920000471174717, 0.0, 0.0, 0.0, 0.0, 0.0, 1.741185890710958E9, 0.0, 2025-03-05 14:44:50.710
16.0, -119.74411678127944, -148.7395611377433, 13.242985743097961, -105.37729110149667, -0.01600000075995922, -0.01600000075995922, 0.9920000471174717, 0.0, 0.0, 0.0, 0.0, 0.0, 1.7411858907115743E9, 0.0, 2025-03-05 14:44:50.711
16.0, 89.29385134205222, 37.574774854816496, 11.391735265031457, 63.40065399883315, -0.01600000075995922, -0.01600000075995922, 0.9920000471174717, 0.0, 0.0, 0.0, 0.0, 0.0, 1.7411858907116296E9, 0.0, 2025-03-05 14:44:50.711
17.0, 32.791442811489105, -27.619161172769964, 13.302824142389, 1.8045017286203802, -0.01600000075995922, -0.01600000075995922, 0.9920000471174717, 0.0, 0.0, 0.0, 0.0, 0.0, 1.7411858907121348E9, 0.0, 2025-03-05 14:44:50.712
17.0, -180.73814515862614, -220.41474378854036, 12.4501269524917, -164.75194279802963, -0.01600000075995922, -0.01600000075995922, 0.9920000471174717, 0.0, 0.0, 0.0, 0.0, 0.0, 1.7411858907121968E9, 0.0, 2025-03-05 14:44:50.712
18.0, -117.7993688043207, -148.3618312422186, 10.48293957579881, -102.93887633038685, -0.01600000075995922, -0.01600000075995922, 0.9920000471174717, 0.0, 0.0, 0.0, 0.0, 0.0, 1.7411858907411458E9, 0.0, 2025-03-05 14:44:50.741
18.0, 95.07573667354882, 39.87855322752148, 12.779238148592412, 58.14983446104452, -0.01600000075995922, -0.01600000075995922, 0.9920000471174717, 0.0, 0.0, 0.0, 0.0, 0.0, 1.7411858907416956E9, 0.0, 2025-03-05 14:44:50.741
19.0, 29.02536355610937, -31.03742973227054, 12.177114255726337, -0.3945594453252852, -0.01600000075995922, -0.01600000075995922, 0.9920000471174717, 0.0, 0.0, 0.0, 0.0, 0.0, 1.7411858907417843E9, 0.0, 2025-03-05 14:44:50.741
19.0, -191.78954952768981, -219.8462789952755, 17.607448991388083, -169.49413594184443, -0.01600000075995922, -0.01600000075995922, 0.9920000471174717, 0.0, 0.0, 0.0, 0.0, 0.0, 1.7411858907418413E9, 0.0, 2025-03-05 14:44:50.741
20.0, -130.9114580489695, -148.76200053747743, 14.821223524399102, -115.22818758478388, -0.01600000075995922, -0.01600000075995922, 0.49600002355873585, 0.0, 0.0, 0.0, 0.0, 0.0, 1.741185890770384E9, 0.0, 2025-03-05 14:44:50.770
20.0, 93.4900190923363, 44.64692567102611, 13.104609444737434, 65.33044237596914, -0.01600000075995922, -0.01600000075995922, 0.49600002355873585, 0.0, 0.0, 0.0, 0.0, 0.0, 1.7411858907704673E9, 0.0, 2025-03-05 14:44:50.770
21.0, 36.7594766644761, -24.14479411393404, 10.87936897110194, 7.186217764858156, -0.01600000075995922, 0.0, 0.49600002355873585, 0.0, 0.0, 0.0, 0.0, 0.0, 1.7411858907708166E9, 0.0, 2025-03-05 14:44:50.770
21.0, -185.5663560014218, -223.12243135645986, 12.90639474708587, -165.81407438544556, -0.01600000075995922, 0.0, 0.49600002355873585, 0.0, 0.0, 0.0, 0.0, 0.0, 1.7411858907708628E9, 0.0, 2025-03-05 14:44:50.770
22.0, -122.99034994281828, -151.79505940154195, 11.720846461132169, -113.46669470565394, -0.01600000075995922, 0.0, 0.49600002355873585, 0.0, 0.0, 0.0, 0.0, 0.0, 1.7411858907715385E9, 0.0, 2025-03-05 14:44:50.771
22.0, 92.21845310740173, 38.91365903895348, 8.508272399194539, 62.52551740920171, -0.01600000075995922, 0.0, 0.49600002355873585, 0.0, 0.0, 0.0, 0.0, 0.0, 1.7411858907716255E9, 0.0, 2025-03-05 14:44:50.771
23.0, 28.17266636621207, -34.70253168884665, 11.103762968443334, -5.858553280588239, -0.01600000075995922, 0.0, 0.49600002355873585, 0.0, 0.0, 0.0, 0.0, 0.0, 1.7411858907721102E9, 0.0, 2025-03-05 14:44:50.772
23.0, -177.9033009922132, -220.41848368849605, 9.547964586876333, -164.23583660414442, -0.01600000075995922, 0.0, 0.49600002355873585, 0.0, 0.0, 0.0, 0.0, 0.0, 1.7411858907721977E9, 0.0, 2025-03-05 14:44:50.772
24.0, -116.1650325236842, -149.16964963264763, 10.266025378368795, -110.06338574597612, -0.01600000075995922, 0.0, 0.49600002355873585, 0.0, 0.0, 0.0, 0.0, 0.0, 1.7411858908004456E9, 0.0, 2025-03-05 14:44:50.800
24.0, 85.58761048596352, 32.769003411754966, 12.790457848459482, 56.754851777572185, -0.01600000075995922, 0.0, 0.49600002355873585, 0.0, 0.0, 0.0, 0.0, 0.0, 1.7411858908005612E9, 0.0, 2025-03-05 14:44:50.800
25.0, 27.589241973124444, -40.813528216443956, 12.390288553200662, 1.6960446299053729, -0.01600000075995922, 0.0, 0.49600002355873585, 0.0, 0.0, 0.0, 0.0, 0.0, 1.7411858908008168E9, 0.0, 2025-03-05 14:44:50.800
25.0, -186.62100778892636, -229.72335477825254, 11.941500558517873, -178.2567215380259, -0.01600000075995922, 0.0, 0.49600002355873585, 0.0, 0.0, 0.0, 0.0, 0.0, 1.7411858908009658E9, 0.0, 2025-03-05 14:44:50.800
26.0, -118.01254310179502, -147.3258789544925, 15.501885316334665, -106.52918028784916, -0.01600000075995922, 0.0, 0.49600002355873585, 0.0, 0.0, 0.0, 0.0, 0.0, 1.741185890830578E9, 0.0, 2025-03-05 14:44:50.830
26.0, 96.36226225830615, 43.95878407917917, 10.913028070703149, 69.73604452377185, -0.01600000075995922, 0.0, 0.49600002355873585, 0.0, 0.0, 0.0, 0.0, 0.0, 1.7411858908307295E9, 0.0, 2025-03-05 14:44:50.830
27.0, 27.925832969136536, -34.848387787118554, 9.772358584217727, 1.0378222377039492, -0.01600000075995922, 0.0, 0.49600002355873585, 0.0, 0.0, 0.0, 0.0, 0.0, 1.7411858908312225E9, 0.0, 2025-03-05 14:44:50.831
27.0, -180.8653017571196, -221.33475917764008, 15.31863021850586, -164.30315480334684, -0.01600000075995922, 0.0, 0.49600002355873585, 0.0, 0.0, 0.0, 0.0, 0.0, 1.741185890831565E9, 0.0, 2025-03-05 14:44:50.831
28.0, -117.47399750817567, -145.57560577522963, 12.233212755061686, -102.2881337380968, -0.01600000075995922, 0.0, 0.49600002355873585, 0.0, 0.0, 0.0, 0.0, 0.0, 1.7411858908603933E9, 0.0, 2025-03-05 14:44:50.860
28.0, 99.17840692494065, 45.78385525755584, 10.273505178280175, 69.79962282301858, -0.01600000075995922, 0.0, 0.49600002355873585, 0.0, 0.0, 0.0, 0.0, 0.0, 1.7411858908604968E9, 0.0, 2025-03-05 14:44:50.860
29.0, 17.588749491609633, -44.62448627129197, 14.252758731134236, -10.350173127371818, -0.01600000075995922, 0.0, 0.49600002355873585, 0.0, 0.0, 0.0, 0.0, 0.0, 1.7411858908608105E9, 0.0, 2025-03-05 14:44:50.860
29.0, -190.424486043863, -235.42670221067965, 10.08277028053999, -177.4376834477298, -0.01600000075995922, 0.0, 0.49600002355873585, 0.0, 0.0, 0.0, 0.0, 0.0, 1.741185890860862E9, 0.0, 2025-03-05 14:44:50.860
30.0, -118.65954579412937, -146.46570196468383, 12.4501269524917, -104.22166201518849, -0.01600000075995922, 0.0, 0.7520000357180834, 0.0, 0.0, 0.0, 0.0, 0.0, 1.741185890861438E9, 0.0, 2025-03-05 14:44:50.861
30.0, 91.27973821852356, 37.264363158494234, 6.84027701895684, 61.91591371642426, -0.01600000075995922, 0.0, 0.7520000357180834, 0.0, 0.0, 0.0, 0.0, 0.0, 1.7411858908614984E9, 0.0, 2025-03-05 14:44:50.861
31.0, 4.910488641820848, -40.398399321362376, 14.750165425240993, -13.312173892278224, -0.01600000075995922, -0.01600000075995922, 0.7520000357180834, 0.0, 0.0, 0.0, 0.0, 0.0, 1.7411858908622031E9, 0.0, 2025-03-05 14:44:50.862
31.0, -208.26754873245955, -234.67872221954167, 13.29160444252193, -177.2843475495465, -0.01600000075995922, -0.01600000075995922, 0.7520000357180834, 0.0, 0.0, 0.0, 0.0, 0.0, 1.7411858908622663E9, 0.0, 2025-03-05 14:44:50.862
32.0, -137.3291263729334, -161.3766830880195, 12.08735665678978, -114.27825299603865, 0.0, -0.01600000075995922, 0.7520000357180834, 0.0, 0.0, 0.0, 0.0, 0.0, 1.7411858908627536E9, 0.0, 2025-03-05 14:44:50.862
32.0, 92.76821840088814, 59.15773749910295, 13.639415138401091, 70.5326432143338, 0.0, -0.01600000075995922, 0.7520000357180834, 0.0, 0.0, 0.0, 0.0, 0.0, 1.7411858908628144E9, 0.0, 2025-03-05 14:44:50.862
33.0, 16.758491701446474, -21.601662144064903, 9.293651389889419, -5.076914189849049, 0.0, -0.01600000075995922, 0.7520000357180834, 0.0, 0.0, 0.0, 0.0, 0.0, 1.741185890920419E9, 0.0, 2025-03-05 14:44:50.920
33.0, -191.015390236862, -201.3936126139015, 10.692373973317444, -166.5096957772039, 0.0, -0.01600000075995922, 0.7520000357180834, 0.0, 0.0, 0.0, 0.0, 0.0, 1.741185890920483E9, 0.0, 2025-03-05 14:44:50.920
34.0, -122.43310484942049, -115.93315872643143, 8.594290098175406, -97.53846079437062, 0.0, -0.01600000075995922, 0.7520000357180834, 0.0, 0.0, 0.0, 0.0, 0.0, 1.7411858909207647E9, 0.0, 2025-03-05 14:44:50.920
34.0, 83.2239937139675, 71.67144275084138, 5.284478637389839, 64.44782598642632, 0.0, -0.01600000075995922, 0.7520000357180834, 0.0, 0.0, 0.0, 0.0, 0.0, 1.7411858909208596E9, 0.0, 2025-03-05 14:44:50.920
35.0, 16.03295111004263, -13.6730742380023, 17.6747671905905, -7.204917264636606, 0.0, -0.01600000075995922, 0.7520000357180834, 0.0, 0.0, 0.0, 0.0, 0.0, 1.7411858909510627E9, 0.0, 2025-03-05 14:44:50.951
35.0, -197.84070765599608, -215.46685614716262, 12.708180049434304, -174.66641758056358, 0.0, -0.01600000075995922, 0.7520000357180834, 0.0, 0.0, 0.0, 0.0, 0.0, 1.7411858909511876E9, 0.0, 2025-03-05 14:44:50.951
36.0, -119.83761428017169, -130.60852615255862, 8.07444400433451, -94.97288942476735, 0.0, -0.01600000075995922, 0.7520000357180834, 0.0, 0.0, 0.0, 0.0, 0.0, 1.741185890951355E9, 0.0, 2025-03-05 14:44:50.951
36.0, 86.2607924779877, 54.108872558921576, 9.428287788294256, 58.751958353910595, 0.0, -0.01600000075995922, 0.7520000357180834, 0.0, 0.0, 0.0, 0.0, 0.0, 1.7411858909514627E9, 0.0, 2025-03-05 14:44:50.951
37.0, 12.341669853776693, -28.314782564528286, 11.67596766166389, -7.160038465168327, 0.0, -0.01600000075995922, 0.7520000357180834, 0.0, 0.0, 0.0, 0.0, 0.0, 1.7411858909516168E9, 0.0, 2025-03-05 14:44:50.951
37.0, -193.36404740903527, -209.53537481743842, 14.11064253281802, -164.03014210658148, 0.0, -0.01600000075995922, 0.7520000357180834, 0.0, 0.0, 0.0, 0.0, 0.0, 1.7411858909516885E9, 0.0, 2025-03-05 14:44:50.951
38.0, -121.70008445810527, -130.42527105472982, 10.426841076463461, -102.6209848341532, 0.0, -0.01600000075995922, 0.7520000357180834, 0.0, 0.0, 0.0, 0.0, 0.0, 1.7411858909523466E9, 0.0, 2025-03-05 14:44:50.952
38.0, 91.93796061072499, 63.68675634544343, 10.718553273007274, 67.5295035499148, 0.0, -0.01600000075995922, 0.7520000357180834, 0.0, 0.0, 0.0, 0.0, 0.0, 1.7411858909524589E9, 0.0, 2025-03-05 14:44:50.952
39.0, 2.932081565260887, -39.31008843425661, 14.06576373334974, -14.613659076858312, 0.0, -0.01600000075995922, 0.7520000357180834, 0.0, 0.0, 0.0, 0.0, 0.0, 1.7411858909529564E9, 0.0, 2025-03-05 14:44:50.952
39.0, -202.2425699038431, -220.7737741842866, 9.372189288958907, -176.2483952618204, 0.0, -0.01600000075995922, 0.7520000357180834, 0.0, 0.0, 0.0, 0.0, 0.0, 1.7411858909530685E9, 0.0, 2025-03-05 14:44:50.953
40.0, -110.67485938873142, -125.11087321769446, 9.016898793168366, -96.6932434043847, 0.0, -0.01600000075995922, 0.8800000417977571, 0.0, 0.0, 0.0, 0.0, 0.0, 1.7411858909535377E9, 0.0, 2025-03-05 14:44:50.953
40.0, 83.97571360506117, 58.08064631186426, 12.573543651029468, 60.98467862745747, 0.0, -0.01600000075995922, 0.8800000417977571, 0.0, 0.0, 0.0, 0.0, 0.0, 1.7411858909536364E9, 0.0, 2025-03-05 14:44:50.953
41.0, 5.658468632958829, -34.833428187295794, 15.984332410618663, -9.261862240266055, 0.0, 0.0, 0.8800000417977571, 0.0, 0.0, 0.0, 0.0, 0.0, 1.741185890954213E9, 0.0, 2025-03-05 14:44:50.954
41.0, -202.23509010393173, -226.0358134219423, 17.603709091432393, -183.15973037993535, 0.0, 0.0, 0.8800000417977571, 0.0, 0.0, 0.0, 0.0, 0.0, 1.7411858909543176E9, 0.0, 2025-03-05 14:44:50.954
42.0, -113.4984838552773, -125.44372431375086, 9.615282786078751, -105.03696020552889, 0.0, 0.0, 0.8800000417977571, 0.0, 0.0, 0.0, 0.0, 0.0, 1.7411858909805367E9, 0.0, 2025-03-05 14:44:50.980
42.0, 87.53983826283365, 59.393351196311414, 7.711673708632588, 60.10206223791465, 0.0, 0.0, 0.8800000417977571, 0.0, 0.0, 0.0, 0.0, 0.0, 1.7411858909806547E9, 0.0, 2025-03-05 14:44:50.980
43.0, 1.854990378022194, -43.610973383300006, 12.135975356213748, -18.203963034320623, 0.0, 0.0, 0.8800000417977571, 0.0, 0.0, 0.0, 0.0, 0.0, 1.7411858909809124E9, 0.0, 2025-03-05 14:44:50.980
43.0, -198.98885694239289, -223.4066637530923, 16.12270870897919, -179.2178758266382, 0.0, 0.0, 0.8800000417977571, 0.0, 0.0, 0.0, 0.0, 0.0, 1.741185890981078E9, 0.0, 2025-03-05 14:44:50.981
44.0, -115.01314333733171, -124.35167352668941, 13.28786454256624, -97.71797599224374, 0.0, 0.0, 0.8800000417977571, 0.0, 0.0, 0.0, 0.0, 0.0, 1.7411858910105073E9, 0.0, 2025-03-05 14:44:51.010
44.0, 95.13931497279555, 59.49806839507073, 9.712520184926689, 66.50851086201146, 0.0, 0.0, 0.8800000417977571, 0.0, 0.0, 0.0, 0.0, 0.0, 1.7411858910106163E9, 0.0, 2025-03-05 14:44:51.010
45.0, -2.5468718698248267, -42.59372059535235, 10.987826069816947, -18.70884952833876, 0.0, 0.0, 0.8800000417977571, 0.0, 0.0, 0.0, 0.0, 0.0, 1.7411858910109696E9, 0.0, 2025-03-05 14:44:51.010
45.0, -199.49374343641102, -217.57241982221603, 12.225732955150306, -173.64168499270454, 0.0, 0.0, 0.8800000417977571, 0.0, 0.0, 0.0, 0.0, 0.0, 1.741185891011082E9, 0.0, 2025-03-05 14:44:51.011
46.0, -114.07816834840924, -117.59741420671344, 11.474013064056635, -93.09171974705532, 0.0, 0.0, 0.8800000417977571, 0.0, 0.0, 0.0, 0.0, 0.0, 1.741185891011566E9, 0.0, 2025-03-05 14:44:51.011
46.0, 100.1582607133314, 61.98510186560452, 10.722293172962964, 74.41091946838424, 0.0, 0.0, 0.8800000417977571, 0.0, 0.0, 0.0, 0.0, 0.0, 1.7411858910116675E9, 0.0, 2025-03-05 14:44:51.011
47.0, 1.0509118875488639, -41.7597229052335, 12.943793746642768, -18.043147336225957, 0.0, 0.0, 0.8800000417977571, 0.0, 0.0, 0.0, 0.0, 0.0, 1.7411858910121384E9, 0.0, 2025-03-05 14:44:51.012
47.0, -209.9879027120769, -230.49751406908035, 12.824116948060691, -187.30353953083977, 0.0, 0.0, 0.8800000417977571, 0.0, 0.0, 0.0, 0.0, 0.0, 1.741185891012206E9, 0.0, 2025-03-05 14:44:51.012
48.0, -116.44926492031664, -121.07178126554936, 11.264578666538, -84.14213915308937, 0.0, 0.0, 0.8800000417977571, 0.0, 0.0, 0.0, 0.0, 0.0, 1.7411858910405388E9, 0.0, 2025-03-05 14:44:51.040
48.0, 95.83867626450956, 57.48600221890956, 12.49500575195998, 72.33153509302065, 0.0, 0.0, 0.8800000417977571, 0.0, 0.0, 0.0, 0.0, 0.0, 1.7411858910406225E9, 0.0, 2025-03-05 14:44:51.040
49.0, -1.9784070765599608, -45.720276958309114, 12.48378605209291, -14.351866079960018, 0.0, 0.0, 0.8800000417977571, 0.0, 0.0, 0.0, 0.0, 0.0, 1.7411858910414803E9, 0.0, 2025-03-05 14:44:51.041
49.0, -216.24101543799043, -234.62262372020632, 15.984332410618663, -185.71782194962725, 0.0, 0.0, 0.8800000417977571, 0.0, 0.0, 0.0, 0.0, 0.0, 1.741185891041568E9, 0.0, 2025-03-05 14:44:51.041
50.0, -117.55253540724516, -126.59187360014766, 11.24961906671524, -95.27956122113392, 0.0, 0.0, 0.944000044837594, 0.0, 0.0, 0.0, 0.0, 0.0, 1.741185891070458E9, 0.0, 2025-03-05 14:44:51.070
50.0, 102.86968818120658, 60.64247778151184, 14.727726025506854, 76.45290484419093, 0.0, 0.0, 0.944000044837594, 0.0, 0.0, 0.0, 0.0, 0.0, 1.741185891070522E9, 0.0, 2025-03-05 14:44:51.070
51.0, -4.226086949929595, -54.06025385949761, 8.657868397422135, -26.166210039984435, 0.0, -0.01600000075995922, 0.944000044837594, 0.0, 0.0, 0.0, 0.0, 0.0, 1.7411858910707703E9, 0.0, 2025-03-05 14:44:51.070
51.0, -204.21723708044738, -235.21726781316102, 13.762831836938858, -184.53227366367355, 0.0, -0.01600000075995922, 0.944000044837594, 0.0, 0.0, 0.0, 0.0, 0.0, 1.7411858910708241E9, 0.0, 2025-03-05 14:44:51.070
52.0, -103.39327417500317, -121.94317795522511, 11.982639458030462, -89.14612529380247, -0.01600000075995922, -0.01600000075995922, 0.944000044837594, 0.0, 0.0, 0.0, 0.0, 0.0, 1.7411858910715675E9, 0.0, 2025-03-05 14:44:51.071
52.0, 99.84784901700914, 52.72510957531631, 14.428534029051661, 57.70478636631742, -0.01600000075995922, -0.01600000075995922, 0.944000044837594, 0.0, 0.0, 0.0, 0.0, 0.0, 1.74118589107172E9, 0.0, 2025-03-05 14:44:51.071
53.0, 0.7105809915810823, -49.22082331683487, 13.486079240217805, -13.760961886961013, -0.01600000075995922, -0.01600000075995922, 0.944000044837594, 0.0, 0.0, 0.0, 0.0, 0.0, 1.7411858910721376E9, 0.0, 2025-03-05 14:44:51.072
53.0, -204.0265021827072, -233.63529013190418, 12.775498248636723, -178.78778733173385, -0.01600000075995922, -0.01600000075995922, 0.944000044837594, 0.0, 0.0, 0.0, 0.0, 0.0, 1.7411858910722213E9, 0.0, 2025-03-05 14:44:51.072
54.0, -110.0128970965743, -127.65026528760791, 10.329603677615523, -95.07760662352666, -0.01600000075995922, -0.01600000075995922, 0.944000044837594, 0.0, 0.0, 0.0, 0.0, 0.0, 1.741185891100464E9, 0.0, 2025-03-05 14:44:51.100
54.0, 97.36455544643104, 55.27572134509683, 10.370742577128112, 71.8303884989582, -0.01600000075995922, -0.01600000075995922, 0.944000044837594, 0.0, 0.0, 0.0, 0.0, 0.0, 1.7411858911007855E9, 0.0, 2025-03-05 14:44:51.100
55.0, -0.7292804913595319, -50.051081106998026, 8.624209297820926, -20.833112703170627, -0.01600000075995922, -0.01600000075995922, 0.944000044837594, 0.0, 0.0, 0.0, 0.0, 0.0, 1.7411858911009233E9, 0.0, 2025-03-05 14:44:51.100
55.0, -210.49652910605073, -239.14416276663542, 18.396567882038653, -185.28399355476722, -0.01600000075995922, -0.01600000075995922, 0.944000044837594, 0.0, 0.0, 0.0, 0.0, 0.0, 1.741185891101001E9, 0.0, 2025-03-05 14:44:51.101
56.0, -101.29893019981682, -123.92532493174076, 16.253605207428336, -89.71085018711165, -0.01600000075995922, -0.01600000075995922, 0.944000044837594, 0.0, 0.0, 0.0, 0.0, 0.0, 1.7411858911305728E9, 0.0, 2025-03-05 14:44:51.130
56.0, 103.17635997757316, 56.40891103167087, 12.48378605209291, 74.06310877250507, -0.01600000075995922, -0.01600000075995922, 0.944000044837594, 0.0, 0.0, 0.0, 0.0, 0.0, 1.741185891130644E9, 0.0, 2025-03-05 14:44:51.130
57.0, -1.0509118875488639, -56.74924192763865, 9.024378593079746, -29.64057709882036, -0.01600000075995922, -0.01600000075995922, 0.944000044837594, 0.0, 0.0, 0.0, 0.0, 0.0, 1.7411858911309068E9, 0.0, 2025-03-05 14:44:51.130
57.0, -203.5403151884675, -232.05331245064735, 11.66100806184113, -187.26614053128287, -0.01600000075995922, -0.01600000075995922, 0.944000044837594, 0.0, 0.0, 0.0, 0.0, 0.0, 1.7411858911310053E9, 0.0, 2025-03-05 14:44:51.131
58.0, -97.678707042709, -120.52949577197433, 9.895775282755494, -95.21598292188719, -0.01600000075995922, -0.01600000075995922, 0.944000044837594, 0.0, 0.0, 0.0, 0.0, 0.0, 1.7411858911316311E9, 0.0, 2025-03-05 14:44:51.131
58.0, 95.96209296304733, 56.88761822599918, 10.389442076906562, 65.85402836976573, -0.01600000075995922, -0.01600000075995922, 0.944000044837594, 0.0, 0.0, 0.0, 0.0, 0.0, 1.7411858911317089E9, 0.0, 2025-03-05 14:44:51.131
59.0, -3.784778755158186, -50.481169601902366, 12.109796056523919, -27.404116925317794, -0.01600000075995922, -0.01600000075995922, 0.944000044837594, 0.0, 0.0, 0.0, 0.0, 0.0, 1.7411858911322582E9, 0.0, 2025-03-05 14:44:51.132
59.0, -205.44392426591367, -225.64312392659485, 13.942347034811974, -187.1838627322577, -0.01600000075995922, -0.01600000075995922, 0.944000044837594, 0.0, 0.0, 0.0, 0.0, 0.0, 1.7411858911323388E9, 0.0, 2025-03-05 14:44:51.132
60.0, -98.28457083553076, -114.5381760429591, 7.405001912266016, -89.48645618977025, -0.01600000075995922, -0.01600000075995922, 0.9600000455975533, 0.0, 0.0, 0.0, 0.0, 0.0, 1.741185891161008E9, 0.0, 2025-03-05 14:44:51.161
60.0, 100.39761431049556, 58.559353506192565, 8.665348197333515, 66.08964206697419, -0.01600000075995922, -0.01600000075995922, 0.9600000455975533, 0.0, 0.0, 0.0, 0.0, 0.0, 1.7411858911611128E9, 0.0, 2025-03-05 14:44:51.161
61.0, -4.270965749397874, -52.19030388165265, 14.215359731577337, -25.5117275477387, -0.01600000075995922, -0.01600000075995922, 0.9600000455975533, 0.0, 0.0, 0.0, 0.0, 0.0, 1.7411858911903725E9, 0.0, 2025-03-05 14:44:51.190
61.0, -207.01842214725912, -230.20954177249223, 10.957906870171428, -187.2212617318146, -0.01600000075995922, -0.01600000075995922, 0.9600000455975533, 0.0, 0.0, 0.0, 0.0, 0.0, 1.7411858911905165E9, 0.0, 2025-03-05 14:44:51.190
62.0, -99.68703331891447, -121.34853386227041, 11.69466716144234, -87.55666781263426, 0.0, -0.01600000075995922, 0.9600000455975533, 0.0, 0.0, 0.0, 0.0, 0.0, 1.7411858911908655E9, 0.0, 2025-03-05 14:44:51.190
62.0, 109.47435150295496, 63.1781299514696, 8.82990379538387, 76.70721804117784, 0.0, -0.01600000075995922, 0.9600000455975533, 0.0, 0.0, 0.0, 0.0, 0.0, 1.7411858911909137E9, 0.0, 2025-03-05 14:44:51.190
63.0, -1.6305963806807995, -49.9875028077513, 8.699007296934724, -34.640823339577764, 0.0, -0.01600000075995922, 0.9600000455975533, 0.0, 0.0, 0.0, 0.0, 0.0, 1.7411858911914363E9, 0.0, 2025-03-05 14:44:51.191
63.0, -213.15185807459056, -236.91518239304423, 12.46508655231446, -193.86332405311987, 0.0, -0.01600000075995922, 0.9600000455975533, 0.0, 0.0, 0.0, 0.0, 0.0, 1.7411858911914814E9, 0.0, 2025-03-05 14:44:51.191
64.0, -92.19601370766759, -111.35552118066698, 11.466533264145255, -86.1691649290733, 0.0, -0.01600000075995922, 0.9600000455975533, 0.0, 0.0, 0.0, 0.0, 0.0, 1.7411858911922948E9, 0.0, 2025-03-05 14:44:51.192
64.0, 108.97320490889251, 70.65792986284941, 7.595736810006201, 72.77284328779206, 0.0, -0.01600000075995922, 0.9600000455975533, 0.0, 0.0, 0.0, 0.0, 0.0, 1.7411858911923776E9, 0.0, 2025-03-05 14:44:51.192
65.0, -5.983839929103851, -50.866379297338426, 11.593689862638712, -30.605471287388355, 0.0, -0.01600000075995922, 0.9600000455975533, 0.0, 0.0, 0.0, 0.0, 0.0, 1.7411858911927788E9, 0.0, 2025-03-05 14:44:51.192
65.0, -202.4295649016276, -225.4449092289433, 10.815790671855211, -187.28484003106132, 0.0, -0.01600000075995922, 0.9600000455975533, 0.0, 0.0, 0.0, 0.0, 0.0, 1.7411858911928248E9, 0.0, 2025-03-05 14:44:51.192
66.0, -100.51729110907763, -120.36494017392397, 10.692373973317444, -97.78155429149047, 0.0, -0.01600000075995922, 0.9600000455975533, 0.0, 0.0, 0.0, 0.0, 0.0, 1.7411858912210264E9, 0.0, 2025-03-05 14:44:51.221
66.0, 102.7163522830233, 64.6217313343659, 8.743886096403003, 69.32839542860165, 0.0, -0.01600000075995922, 0.9600000455975533, 0.0, 0.0, 0.0, 0.0, 0.0, 1.7411858912211142E9, 0.0, 2025-03-05 14:44:51.221
67.0, -14.391135029494762, -61.49143507145345, 14.372435529716313, -34.88017693674192, 0.0, -0.01600000075995922, 0.9600000455975533, 0.0, 0.0, 0.0, 0.0, 0.0, 1.7411858912213092E9, 0.0, 2025-03-05 14:44:51.221
67.0, -214.38602505996823, -239.57051136158407, 10.696113873273134, -201.3319042646326, 0.0, -0.01600000075995922, 0.9600000455975533, 0.0, 0.0, 0.0, 0.0, 0.0, 1.741185891221584E9, 0.0, 2025-03-05 14:44:51.221
68.0, -106.04112334363163, -128.67873777542263, 10.318383977748454, -90.03248158330098, 0.0, -0.01600000075995922, 0.9600000455975533, 0.0, 0.0, 0.0, 0.0, 0.0, 1.741185891250486E9, 0.0, 2025-03-05 14:44:51.250
68.0, 117.01024991367012, 60.71353588066995, 17.203539796173573, 79.28774901060387, 0.0, -0.01600000075995922, 0.9600000455975533, 0.0, 0.0, 0.0, 0.0, 0.0, 1.7411858912505562E9, 0.0, 2025-03-05 14:44:51.250
69.0, 19.058530174195766, -84.68255469668657, 13.018591745756567, -30.100584793370217, 0.0, -0.01600000075995922, 0.9600000455975533, 0.0, 0.0, 0.0, 0.0, 0.0, 1.7411858912507958E9, 0.0, 2025-03-05 14:44:51.250
69.0, -178.06411669030786, -290.5453477576375, 15.786117712967098, -182.04898009309545, 0.0, -0.01600000075995922, 0.9600000455975533, 0.0, 0.0, 0.0, 0.0, 0.0, 1.7411858912508423E9, 0.0, 2025-03-05 14:44:51.250
70.0, -49.86034620925784, -173.14240834861994, 12.360369353555143, -75.87322035105899, 0.0, -0.01600000075995922, 0.9760000463575125, 0.0, 0.0, 0.0, 0.0, 0.0, 1.7411858912516005E9, 0.0, 2025-03-05 14:44:51.251
70.0, 159.8208847064525, -7.348903412930667, 11.204740267246962, 76.2771295462735, 0.0, -0.01600000075995922, 0.9760000463575125, 0.0, 0.0, 0.0, 0.0, 0.0, 1.741185891251767E9, 0.0, 2025-03-05 14:44:51.251
71.0, 39.55318193137646, -124.57232762407511, 13.635675238445401, -21.96630238974467, 0.0, 0.0, 0.9760000463575125, 0.0, 0.0, 0.0, 0.0, 0.0, 1.7411858912522295E9, 0.0, 2025-03-05 14:44:51.252
71.0, -161.09245069138706, -299.41265055257827, 12.745579048991203, -187.38581732986495, 0.0, 0.0, 0.9760000463575125, 0.0, 0.0, 0.0, 0.0, 0.0, 1.7411858912523131E9, 0.0, 2025-03-05 14:44:51.252
72.0, -39.36244703363627, -163.8150978591293, 9.514305487275124, -63.81952279387042, 0.0, 0.0, 0.9760000463575125, 0.0, 0.0, 0.0, 0.0, 0.0, 1.74118589128053E9, 0.0, 2025-03-05 14:44:51.280
72.0, 152.06433219835162, 3.3920892598107457, 10.05659098085016, 85.93355123186484, 0.0, 0.0, 0.9760000463575125, 0.0, 0.0, 0.0, 0.0, 0.0, 1.7411858912806911E9, 0.0, 2025-03-05 14:44:51.280
73.0, 32.22297801822424, -113.18059235904366, 15.546764115802944, -29.461061900947243, 0.0, 0.0, 0.9760000463575125, 0.0, 0.0, 0.0, 0.0, 0.0, 1.741185891280959E9, 0.0, 2025-03-05 14:44:51.280
73.0, -170.3374833818525, -291.6560980444774, 11.092543268576264, -186.97068843478337, 0.0, 0.0, 0.9760000463575125, 0.0, 0.0, 0.0, 0.0, 0.0, 1.741185891281012E9, 0.0, 2025-03-05 14:44:51.281
74.0, -47.41445163823664, -152.9245091881603, 12.195813755504787, -77.44023843249306, 0.0, 0.0, 0.9760000463575125, 0.0, 0.0, 0.0, 0.0, 0.0, 1.7411858913104615E9, 0.0, 2025-03-05 14:44:51.310
74.0, 141.61505172215402, 9.966833381913602, 8.141762203536928, 70.02775672031567, 0.0, 0.0, 0.9760000463575125, 0.0, 0.0, 0.0, 0.0, 0.0, 1.741185891310714E9, 0.0, 2025-03-05 14:44:51.310
75.0, 28.778530159033835, -105.67461314797401, 14.817483624443412, -29.333905302453786, 0.0, 0.0, 0.9760000463575125, 0.0, 0.0, 0.0, 0.0, 0.0, 1.7411858913108554E9, 0.0, 2025-03-05 14:44:51.310
75.0, -180.87278155703098, -287.2766751963645, 17.495251992717385, -188.75462071364745, 0.0, 0.0, 0.9760000463575125, 0.0, 0.0, 0.0, 0.0, 0.0, 1.7411858913109455E9, 0.0, 2025-03-05 14:44:51.310
76.0, -60.219869086518884, -156.45497474633157, 9.772358584217727, -78.4612311203964, 0.0, 0.0, 0.9760000463575125, 0.0, 0.0, 0.0, 0.0, 0.0, 1.7411858913114977E9, 0.0, 2025-03-05 14:44:51.311
76.0, 142.56498631089926, 16.204986508004367, 10.07155058067292, 81.8720198799856, 0.0, 0.0, 0.9760000463575125, 0.0, 0.0, 0.0, 0.0, 0.0, 1.7411858913115652E9, 0.0, 2025-03-05 14:44:51.311
77.0, 14.301377430558205, -112.01000367291272, 17.027764498256147, -29.262847203295678, 0.0, 0.0, 0.9760000463575125, 0.0, 0.0, 0.0, 0.0, 0.0, 1.7411858913120804E9, 0.0, 2025-03-05 14:44:51.312
77.0, -179.95650606788695, -282.33252745494246, 12.738099249079823, -179.34129252517596, 0.0, 0.0, 0.9760000463575125, 0.0, 0.0, 0.0, 0.0, 0.0, 1.7411858913121555E9, 0.0, 2025-03-05 14:44:51.312
78.0, -60.171250387094915, -153.16760268528014, 14.996998822316527, -69.2722969292663, 0.0, 0.0, 0.9760000463575125, 0.0, 0.0, 0.0, 0.0, 0.0, 1.741185891340528E9, 0.0, 2025-03-05 14:44:51.340
78.0, 134.12029221095145, 20.236598660238087, 15.917014211416245, 78.19569822354242, 0.0, 0.0, 0.9760000463575125, 0.0, 0.0, 0.0, 0.0, 0.0, 1.741185891340628E9, 0.0, 2025-03-05 14:44:51.340
79.0, 9.316090789623559, -105.06874935515225, 13.074690245091915, -28.922516307327896, 0.0, 0.0, 0.9760000463575125, 0.0, 0.0, 0.0, 0.0, 0.0, 1.741185891340775E9, 0.0, 2025-03-05 14:44:51.340
79.0, -190.15895314700902, -280.3989991778508, 10.83449017163366, -182.55760648706928, 0.0, 0.0, 0.9760000463575125, 0.0, 0.0, 0.0, 0.0, 0.0, 1.7411858913409257E9, 0.0, 2025-03-05 14:44:51.340
80.0, -54.63245855271816, -143.63085779827088, 12.012558657675982, -73.07577518420294, 0.0, 0.0, 0.9920000471174717, 0.0, 0.0, 0.0, 0.0, 0.0, 1.7411858913707397E9, 0.0, 2025-03-05 14:44:51.370
80.0, 138.30150036141276, 29.990257744677365, 11.29449786618352, 81.78600218100473, 0.0, 0.0, 0.9920000471174717, 0.0, 0.0, 0.0, 0.0, 0.0, 1.7411858913708024E9, 0.0, 2025-03-05 14:44:51.370
81.0, 6.728080020286143, -108.8647478101775, 7.580777210183442, -30.01456709438935, 0.0, 0.0, 0.9920000471174717, 0.0, 0.0, 0.0, 0.0, 0.0, 1.7411858913709557E9, 0.0, 2025-03-05 14:44:51.370
81.0, -188.37876076810062, -281.2442165678367, 10.43806077633053, -191.52588658081368, 0.0, 0.0, 0.9920000471174717, 0.0, 0.0, 0.0, 0.0, 0.0, 1.7411858913709943E9, 0.0, 2025-03-05 14:44:51.370
82.0, -56.087279635481536, -142.34433221351355, 9.619022686034441, -72.06600219616666, -0.01600000075995922, 0.0, 0.9920000471174717, 0.0, 0.0, 0.0, 0.0, 0.0, 1.7411858913714073E9, 0.0, 2025-03-05 14:44:51.371
82.0, 135.78454769123346, 29.76960364729166, 11.27205846644938, 79.59816070692614, -0.01600000075995922, 0.0, 0.9920000471174717, 0.0, 0.0, 0.0, 0.0, 0.0, 1.7411858913714828E9, 0.0, 2025-03-05 14:44:51.371
83.0, 3.466887258924544, -102.78367048222572, 12.113535956479609, -29.700415498111397, -0.01600000075995922, 0.0, 0.9920000471174717, 0.0, 0.0, 0.0, 0.0, 0.0, 1.7411858913720722E9, 0.0, 2025-03-05 14:44:51.372
83.0, -188.28900316916406, -277.9755440065637, 16.49669870454818, -180.48570191161707, -0.01600000075995922, 0.0, 0.9920000471174717, 0.0, 0.0, 0.0, 0.0, 0.0, 1.741185891372152E9, 0.0, 2025-03-05 14:44:51.372
84.0, -58.49951510690153, -143.60093859862536, 8.900961894541979, -68.53927653795108, -0.01600000075995922, 0.0, 0.9920000471174717, 0.0, 0.0, 0.0, 0.0, 0.0, 1.7411858914005463E9, 0.0, 2025-03-05 14:44:51.400
84.0, 142.5537666110322, 32.18183911871165, 14.551950727589428, 83.97384365508333, -0.01600000075995922, 0.0, 0.9920000471174717, 0.0, 0.0, 0.0, 0.0, 0.0, 1.741185891400665E9, 0.0, 2025-03-05 14:44:51.400
85.0, 8.134282403625548, -104.94907255657017, 12.124755656346679, -42.98080024076626, -0.01600000075995922, 0.0, 0.9920000471174717, 0.0, 0.0, 0.0, 0.0, 0.0, 1.7411858914305277E9, 0.0, 2025-03-05 14:44:51.430
85.0, -194.84504779148847, -275.2042781393975, 10.83823007158935, -184.70430906163529, -0.01600000075995922, 0.0, 0.9920000471174717, 0.0, 0.0, 0.0, 0.0, 0.0, 1.7411858914306498E9, 0.0, 2025-03-05 14:44:51.430
86.0, -56.85769902635366, -130.86283934954554, 13.826410136185586, -65.01629077969119, -0.01600000075995922, 0.0, 0.9920000471174717, 0.0, 0.0, 0.0, 0.0, 0.0, 1.741185891430811E9, 0.0, 2025-03-05 14:44:51.430
86.0, 131.9922891361639, 35.31961518153548, 12.143455156125128, 88.06529420660809, -0.01600000075995922, 0.0, 0.9920000471174717, 0.0, 0.0, 0.0, 0.0, 0.0, 1.741185891430861E9, 0.0, 2025-03-05 14:44:51.430
87.0, 0.5572450933977962, -100.17696021310985, 10.236106178723276, -34.225694444496185, -0.01600000075995922, 0.0, 0.9920000471174717, 0.0, 0.0, 0.0, 0.0, 0.0, 1.7411858914315176E9, 0.0, 2025-03-05 14:44:51.431
87.0, -193.70811820495874, -262.6905728876591, 14.035844533704221, -186.32368574244902, -0.01600000075995922, 0.0, 0.9920000471174717, 0.0, 0.0, 0.0, 0.0, 0.0, 1.7411858914315636E9, 0.0, 2025-03-05 14:44:51.431
88.0, -59.63270479347557, -129.37809906713665, 11.64604846201837, -74.25758357020095, -0.01600000075995922, 0.0, 0.9920000471174717, 0.0, 0.0, 0.0, 0.0, 0.0, 1.7411858914322753E9, 0.0, 2025-03-05 14:44:51.432
88.0, 138.4772756593302, 45.660438559018075, 11.563770662993193, 84.22815685207024, -0.01600000075995922, 0.0, 0.9920000471174717, 0.0, 0.0, 0.0, 0.0, 0.0, 1.7411858914323387E9, 0.0, 2025-03-05 14:44:51.432
89.0, -4.5701577458530664, -111.08250848390162, 11.24213926680386, -46.57858399813995, -0.01600000075995922, 0.0, 0.9920000471174717, 0.0, 0.0, 0.0, 0.0, 0.0, 1.7411858914328067E9, 0.0, 2025-03-05 14:44:51.432
89.0, -192.8703806148842, -267.5711423298344, 8.897221994586289, -188.9977142107673, -0.01600000075995922, 0.0, 0.9920000471174717, 0.0, 0.0, 0.0, 0.0, 0.0, 1.7411858914328532E9, 0.0, 2025-03-05 14:44:51.432
90.0, -57.407464319840074, -130.3616927554831, 15.621562114916742, -61.201592824887484, -0.01600000075995922, 0.0, 0.9920000471174717, 0.0, 0.0, 0.0, 0.0, 0.0, 1.7411858914610894E9, 0.0, 2025-03-05 14:44:51.461
90.0, 130.242015956901, 31.84898802265525, 9.521785287186503, 71.2394843059592, -0.01600000075995922, 0.0, 0.9920000471174717, 0.0, 0.0, 0.0, 0.0, 0.0, 1.7411858914611533E9, 0.0, 2025-03-05 14:44:51.461
91.0, -5.763185831718147, -106.10470164287835, 13.168187743984163, -36.09190452238545, -0.01600000075995922, -0.01600000075995922, 0.9920000471174717, 0.0, 0.0, 0.0, 0.0, 0.0, 1.7411858914612787E9, 0.0, 2025-03-05 14:44:51.461
91.0, -204.62114627566189, -283.34230044297874, 13.392581741325557, -199.3721966878511, -0.01600000075995922, -0.01600000075995922, 0.9920000471174717, 0.0, 0.0, 0.0, 0.0, 0.0, 1.741185891461347E9, 0.0, 2025-03-05 14:44:51.461
92.0, -47.56030773650855, -126.52081550098956, 10.774651772342622, -61.39606762258336, 0.0, -0.01600000075995922, 0.9920000471174717, 0.0, 0.0, 0.0, 0.0, 0.0, 1.7411858914904115E9, 0.0, 2025-03-05 14:44:51.490
92.0, 138.09206596389413, 35.596367778256536, 7.509719111025333, 82.7995150689967, 0.0, -0.01600000075995922, 0.9920000471174717, 0.0, 0.0, 0.0, 0.0, 0.0, 1.741185891490543E9, 0.0, 2025-03-05 14:44:51.490
93.0, -5.980100029148161, -111.99504407308996, 14.720246225595474, -44.84701031865552, 0.0, -0.01600000075995922, 0.9920000471174717, 0.0, 0.0, 0.0, 0.0, 0.0, 1.7411858914908888E9, 0.0, 2025-03-05 14:44:51.490
93.0, -198.61860684677958, -274.8789068432525, 9.031858392991126, -189.31934560695663, 0.0, -0.01600000075995922, 0.9920000471174717, 0.0, 0.0, 0.0, 0.0, 0.0, 1.7411858914909873E9, 0.0, 2025-03-05 14:44:51.490
94.0, -58.574313106015325, -131.56594054121524, 11.402954964898527, -68.0867486433126, 0.0, -0.01600000075995922, 0.9920000471174717, 0.0, 0.0, 0.0, 0.0, 0.0, 1.7411858914914863E9, 0.0, 2025-03-05 14:44:51.491
94.0, 143.61215829849243, 47.04420154262334, 14.020884933881462, 89.75946888653561, 0.0, -0.01600000075995922, 0.9920000471174717, 0.0, 0.0, 0.0, 0.0, 0.0, 1.7411858914916291E9, 0.0, 2025-03-05 14:44:51.491
95.0, -5.254559437744319, -97.66748734284192, 13.605756038799882, -38.45926119433716, 0.0, -0.01600000075995922, 0.9920000471174717, 0.0, 0.0, 0.0, 0.0, 0.0, 1.7411858914920845E9, 0.0, 2025-03-05 14:44:51.492
95.0, -202.34354720264673, -274.2506036506966, 13.744132337160408, -199.4133355873637, 0.0, -0.01600000075995922, 0.9920000471174717, 0.0, 0.0, 0.0, 0.0, 0.0, 1.7411858914921763E9, 0.0, 2025-03-05 14:44:51.492
96.0, -56.37525193206966, -125.12209291756153, 12.936313946731389, -66.86006145784631, 0.0, -0.01600000075995922, 0.9920000471174717, 0.0, 0.0, 0.0, 0.0, 0.0, 1.7411858915203433E9, 0.0, 2025-03-05 14:44:51.520
96.0, 133.82858001440763, 37.256883358582854, 11.163601367734373, 77.85536732757464, 0.0, -0.01600000075995922, 0.9920000471174717, 0.0, 0.0, 0.0, 0.0, 0.0, 1.741185891520408E9, 0.0, 2025-03-05 14:44:51.520
97.0, -10.273505178280175, -106.37023453973234, 12.47256635222584, -46.05499800434336, 0.0, -0.01600000075995922, 0.9920000471174717, 0.0, 0.0, 0.0, 0.0, 0.0, 1.7411858915207508E9, 0.0, 2025-03-05 14:44:51.520
97.0, -207.5382682411, -272.00292377732694, 13.142008444294333, -188.8069793130271, 0.0, -0.01600000075995922, 0.9920000471174717, 0.0, 0.0, 0.0, 0.0, 0.0, 1.7411858915208027E9, 0.0, 2025-03-05 14:44:51.520
98.0, -53.59650626499206, -122.60888014733791, 11.552550963126123, -67.72397834761068, 0.0, -0.01600000075995922, 0.9920000471174717, 0.0, 0.0, 0.0, 0.0, 0.0, 1.74118589155139E9, 0.0, 2025-03-05 14:44:51.551
98.0, 136.9551363773644, 39.71399762947112, 12.689480549655855, 83.48017686093226, 0.0, -0.01600000075995922, 0.9920000471174717, 0.0, 0.0, 0.0, 0.0, 0.0, 1.7411858915515077E9, 0.0, 2025-03-05 14:44:51.551
99.0, -12.248172354884446, -102.15536728966981, 13.28038474265486, -46.03629850456491, 0.0, -0.01600000075995922, 0.9920000471174717, 0.0, 0.0, 0.0, 0.0, 0.0, 1.7411858915517309E9, 0.0, 2025-03-05 14:44:51.551
99.0, -210.4292109068483, -269.33637510892004, 14.731465925462544, -196.29051912436262, 0.0, -0.01600000075995922, 0.9920000471174717, 0.0, 0.0, 0.0, 0.0, 0.0, 1.741185891551804E9, 0.0, 2025-03-05 14:44:51.551
100.0, -50.3577529033646, -115.648926329799, 8.392335500568151, -63.29593680007383, 0.0, -0.01600000075995922, 1.008000047877431, 0.0, 0.0, 0.0, 0.0, 0.0, 1.7411858915519907E9, 0.0, 2025-03-05 14:44:51.551
100.0, 134.5466408059001, 43.96252397913486, 8.362416300922632, 78.99229691410437, 0.0, -0.01600000075995922, 1.008000047877431, 0.0, 0.0, 0.0, 0.0, 0.0, 1.7411858915520816E9, 0.0, 2025-03-05 14:44:51.552
0.0, -12.652081550098956, -109.10036150738597, 9.843416683375835, -52.478276178240776, 0.0, -0.01600000075995922, 1.008000047877431, 0.0, 0.0, 0.0, 0.0, 0.0, 1.7411858915521963E9, 0.0, 2025-03-05 14:44:51.552
1.0, -206.2068638568744, -268.13960712309927, 12.88769524730742, -194.55333559494466, 0.0, 0.0, 1.008000047877431, 0.0, 0.0, 0.0, 0.0, 0.0, 1.741185891580272E9, 0.0, 2025-03-05 14:44:51.580
1.0, -55.10368594713509, -115.93315872643143, 13.542177739553154, -73.56383212842047, 0.0, 0.0, 1.008000047877431, 0.0, 0.0, 0.0, 0.0, 0.0, 1.7411858915803742E9, 0.0, 2025-03-05 14:44:51.580
2.0, 121.18397826422006, 45.82873405702412, 9.102916492149234, 80.54248544573784, -0.01600000075995922, 0.0, 1.008000047877431, 0.0, 0.0, 0.0, 0.0, 0.0, 1.7411858915808983E9, 0.0, 2025-03-05 14:44:51.580
2.0, -22.420700234360993, -103.00058467965573, 9.839676783420146, -50.63824540004134, -0.01600000075995922, 0.0, 1.008000047877431, 0.0, 0.0, 0.0, 0.0, 0.0, 1.7411858915809813E9, 0.0, 2025-03-05 14:44:51.580
3.0, -213.7352824676782, -262.28666369244456, 16.650034602731466, -191.9391455259174, -0.01600000075995922, 0.0, 1.008000047877431, 0.0, 0.0, 0.0, 0.0, 0.0, 1.741185891581484E9, 0.0, 2025-03-05 14:44:51.581
3.0, -63.87001144327223, -111.80804907530546, 11.421654464676976, -61.1398844756186, -0.01600000075995922, 0.0, 1.008000047877431, 0.0, 0.0, 0.0, 0.0, 0.0, 1.7411858915815525E9, 0.0, 2025-03-05 14:44:51.581
4.0, 128.27482858020812, 52.541854477487504, 10.785871472209692, 80.25451314914972, -0.01600000075995922, 0.0, 1.008000047877431, 0.0, 0.0, 0.0, 0.0, 0.0, 1.7411858916104896E9, 0.0, 2025-03-05 14:44:51.610
4.0, -23.78202381823212, -100.898760904558, 9.903255082666874, -49.42277791444212, -0.01600000075995922, 0.0, 1.008000047877431, 0.0, 0.0, 0.0, 0.0, 0.0, 1.7411858916105497E9, 0.0, 2025-03-05 14:44:51.610
5.0, -213.26405507326126, -261.36290840338916, 12.730619449168444, -198.45405124872923, -0.01600000075995922, 0.0, 1.008000047877431, 0.0, 0.0, 0.0, 0.0, 0.0, 1.7411858916107795E9, 0.0, 2025-03-05 14:44:51.610
5.0, -53.99667556025088, -106.72552503552288, 12.263131954707205, -64.9957213299349, -0.01600000075995922, 0.0, 1.008000047877431, 0.0, 0.0, 0.0, 0.0, 0.0, 1.741185891610878E9, 0.0, 2025-03-05 14:44:51.610
6.0, 129.36313946731389, 50.79532119818032, 10.47545977588743, 87.46130036376417, -0.01600000075995922, 0.0, 1.008000047877431, 0.0, 0.0, 0.0, 0.0, 0.0, 1.7411858916114252E9, 0.0, 2025-03-05 14:44:51.611
6.0, -22.233705236576498, -96.10794906131923, 12.49126585200429, -46.29248165152967, -0.01600000075995922, 0.0, 1.008000047877431, 0.0, 0.0, 0.0, 0.0, 0.0, 1.741185891611472E9, 0.0, 2025-03-05 14:44:51.611
7.0, -206.48361645359546, -257.4995917491615, 15.015698322094977, -192.96013821382076, -0.01600000075995922, 0.0, 1.008000047877431, 0.0, 0.0, 0.0, 0.0, 0.0, 1.741185891640868E9, 0.0, 2025-03-05 14:44:51.640
7.0, -56.992335424758494, -110.68981898855418, 16.190026908181608, -60.586379282176495, -0.01600000075995922, 0.0, 1.008000047877431, 0.0, 0.0, 0.0, 0.0, 0.0, 1.7411858916412897E9, 0.0, 2025-03-05 14:44:51.641
8.0, 126.74146959837526, 50.73174289893359, 9.970573281869292, 81.63453623279929, -0.01600000075995922, 0.0, 1.008000047877431, 0.0, 0.0, 0.0, 0.0, 0.0, 1.7411858916413584E9, 0.0, 2025-03-05 14:44:51.641
8.0, -23.980238515883684, -98.43416683375835, 13.27290494274348, -54.29960745666176, -0.01600000075995922, 0.0, 1.008000047877431, 0.0, 0.0, 0.0, 0.0, 0.0, 1.741185891641404E9, 0.0, 2025-03-05 14:44:51.641
9.0, -207.2802151441574, -253.94294689130038, 9.68634088523686, -190.641400241293, -0.01600000075995922, 0.0, 1.008000047877431, 0.0, 0.0, 0.0, 0.0, 0.0, 1.741185891641729E9, 0.0, 2025-03-05 14:44:51.641
9.0, -55.82174673862755, -103.7897035703063, 9.65642168559134, -64.19164283946157, -0.01600000075995922, 0.0, 1.008000047877431, 0.0, 0.0, 0.0, 0.0, 0.0, 1.741185891641774E9, 0.0, 2025-03-05 14:44:51.641
10.0, 126.79382819775492, 49.11236621811986, 13.198106943629682, 82.05714492779225, -0.01600000075995922, 0.0, 0.9920000471174717, 0.0, 0.0, 0.0, 0.0, 0.0, 1.7411858916704285E9, 0.0, 2025-03-05 14:44:51.670
10.0, -33.614220801740885, -106.85268163401634, 13.631935338489711, -61.027687476947904, -0.01600000075995922, 0.0, 0.9920000471174717, 0.0, 0.0, 0.0, 0.0, 0.0, 1.7411858916704884E9, 0.0, 2025-03-05 14:44:51.670
11.0, -204.7632624739781, -259.302223527804, 11.122462468221784, -187.91127327363938, -0.01600000075995922, 0.0, 0.9920000471174717, 0.0, 0.0, 0.0, 0.0, 0.0, 1.7411858916707273E9, 0.0, 2025-03-05 14:44:51.670
11.0, -49.355459715239704, -101.9758520917967, 13.70299343764782, -69.25920727942139, -0.01600000075995922, 0.0, 0.9920000471174717, 0.0, 0.0, 0.0, 0.0, 0.0, 1.7411858916707911E9, 0.0, 2025-03-05 14:44:51.670
12.0, 127.02944189496338, 51.659238087944686, 12.48004615213722, 89.88101563509554, -0.01600000075995922, 0.0, 0.9920000471174717, 0.0, 0.0, 0.0, 0.0, 0.0, 1.7411858916714487E9, 0.0, 2025-03-05 14:44:51.671
12.0, -31.35532122850418, -105.88030764553696, 14.335036530159414, -64.41977673675865, -0.01600000075995922, 0.0, 0.9920000471174717, 0.0, 0.0, 0.0, 0.0, 0.0, 1.7411858916715004E9, 0.0, 2025-03-05 14:44:51.671
13.0, -212.8788453778252, -255.1621542768553, 15.097976121120155, -194.18308549933136, -0.01600000075995922, 0.0, 0.9920000471174717, 0.0, 0.0, 0.0, 0.0, 0.0, 1.7411858917005072E9, 0.0, 2025-03-05 14:44:51.700
13.0, -54.74091565143317, -99.34670242294669, 10.980346269905567, -64.56189293507487, -0.01600000075995922, 0.0, 0.9920000471174717, 0.0, 0.0, 0.0, 0.0, 0.0, 1.741185891700596E9, 0.0, 2025-03-05 14:44:51.700
14.0, 120.25274317525327, 56.3976913318038, 3.9343747533857822, 74.4427086180076, -0.01600000075995922, 0.0, 0.9920000471174717, 0.0, 0.0, 0.0, 0.0, 0.0, 1.7411858917009537E9, 0.0, 2025-03-05 14:44:51.700
14.0, -27.34240857604891, -95.19915337208658, 10.284724878147244, -52.915844473056495, -0.01600000075995922, 0.0, 0.9920000471174717, 0.0, 0.0, 0.0, 0.0, 0.0, 1.741185891701116E9, 0.0, 2025-03-05 14:44:51.701
15.0, -221.0280873812735, -256.8563289567828, 9.966833381913602, -203.52161568868905, -0.01600000075995922, 0.0, 0.9920000471174717, 0.0, 0.0, 0.0, 0.0, 0.0, 1.7411858917015667E9, 0.0, 2025-03-05 14:44:51.701
15.0, -48.78699492197484, -91.94544041063637, 9.65642168559134, -52.62039237655699, -0.01600000075995922, 0.0, 0.9920000471174717, 0.0, 0.0, 0.0, 0.0, 0.0, 1.741185891701624E9, 0.0, 2025-03-05 14:44:51.701
16.0, 121.763662757352, 58.08812611177564, 9.031858392991126, 78.85579056572169, -0.01600000075995922, 0.0, 0.9920000471174717, 0.0, 0.0, 0.0, 0.0, 0.0, 1.7411858917305124E9, 0.0, 2025-03-05 14:44:51.730
16.0, -34.440738691948354, -97.24113874789327, 19.137068073265254, -61.431596672162414, -0.01600000075995922, 0.0, 0.9920000471174717, 0.0, 0.0, 0.0, 0.0, 0.0, 1.7411858917306068E9, 0.0, 2025-03-05 14:44:51.730
17.0, -211.33426669612527, -249.69068064168096, 11.791904560290277, -197.22362416330725, -0.01600000075995922, 0.0, 0.9920000471174717, 0.0, 0.0, 0.0, 0.0, 0.0, 1.741185891730742E9, 0.0, 2025-03-05 14:44:51.730
17.0, -45.53328196052462, -88.85254314728081, 8.84486339520663, -57.695436616428196, -0.01600000075995922, 0.0, 0.9920000471174717, 0.0, 0.0, 0.0, 0.0, 0.0, 1.7411858917308145E9, 0.0, 2025-03-05 14:44:51.730
18.0, 122.83327414467931, 52.504455477930605, 11.148641767911613, 81.24184673745185, -0.01600000075995922, 0.0, 0.9920000471174717, 0.0, 0.0, 0.0, 0.0, 0.0, 1.7411858917314653E9, 0.0, 2025-03-05 14:44:51.731
18.0, -36.97265096195042, -103.00806447956711, 8.47087339963764, -61.472735571675, -0.01600000075995922, 0.0, 0.9920000471174717, 0.0, 0.0, 0.0, 0.0, 0.0, 1.7411858917315183E9, 0.0, 2025-03-05 14:44:51.731
19.0, -210.00286231189966, -252.4133278094232, 7.124509415589273, -198.67470534611493, -0.01600000075995922, 0.0, 0.9920000471174717, 0.0, 0.0, 0.0, 0.0, 0.0, 1.7411858917603917E9, 0.0, 2025-03-05 14:44:51.760
19.0, -56.24435543362051, -100.09842231404036, 10.46424007602036, -55.761908339336514, -0.01600000075995922, 0.0, 0.9920000471174717, 0.0, 0.0, 0.0, 0.0, 0.0, 1.7411858917608452E9, 0.0, 2025-03-05 14:44:51.760
20.0, 129.22102326899767, 53.44317036680877, 5.363016536459327, 81.33908413629979, -0.01600000075995922, 0.0, 0.9920000471174717, 0.0, 0.0, 0.0, 0.0, 0.0, 1.7411858917609E9, 0.0, 2025-03-05 14:44:51.760
20.0, -38.12080024834722, -106.20941884163767, 17.513951492495835, -52.919584373012185, -0.01600000075995922, 0.0, 0.9920000471174717, 0.0, 0.0, 0.0, 0.0, 0.0, 1.741185891761007E9, 0.0, 2025-03-05 14:44:51.761
21.0, -207.07078074663877, -259.91930702049285, 14.170480932109058, -197.22362416330725, -0.01600000075995922, 0.0, 0.9920000471174717, 0.0, 0.0, 0.0, 0.0, 0.0, 1.7411858917614965E9, 0.0, 2025-03-05 14:44:51.761
21.0, -54.920430849306285, -105.14354735426605, 10.03041168116033, -62.38153126090765, -0.01600000075995922, 0.0, 0.9920000471174717, 0.0, 0.0, 0.0, 0.0, 0.0, 1.741185891761586E9, 0.0, 2025-03-05 14:44:51.761
22.0, 120.89226606767625, 41.15759901236743, 11.967679858207703, 73.82188522536308, 0.0, 0.0, 0.9920000471174717, 0.0, 0.0, 0.0, 0.0, 0.0, 1.7411858917905145E9, 0.0, 2025-03-05 14:44:51.790
22.0, -39.31756823416799, -103.3072564760223, 16.294744106940925, -61.61485176999122, 0.0, 0.0, 0.9920000471174717, 0.0, 0.0, 0.0, 0.0, 0.0, 1.7411858917906015E9, 0.0, 2025-03-05 14:44:51.790
23.0, -204.0639011822641, -252.88829510379583, 8.762585596181452, -189.39601355604827, 0.0, 0.0, 0.9920000471174717, 0.0, 0.0, 0.0, 0.0, 0.0, 1.741185891790838E9, 0.0, 2025-03-05 14:44:51.790
23.0, -51.22540969308466, -94.09962278511375, 14.335036530159414, -50.496129201725125, 0.0, 0.0, 0.9920000471174717, 0.0, 0.0, 0.0, 0.0, 0.0, 1.7411858917910972E9, 0.0, 2025-03-05 14:44:51.791
24.0, 128.82833377365023, 60.926710178144276, 9.918214682489634, 87.67821456119418, 0.0, 0.0, 0.9920000471174717, 0.0, 0.0, 0.0, 0.0, 0.0, 1.7411858917920203E9, 0.0, 2025-03-05 14:44:51.792
24.0, -43.89146587997675, -94.36515568196774, 14.327556730248034, -47.82210073340684, 0.0, 0.0, 0.9920000471174717, 0.0, 0.0, 0.0, 0.0, 0.0, 1.7411858917921395E9, 0.0, 2025-03-05 14:44:51.792
25.0, -215.37335864827037, -254.41043438576162, 16.631335102953017, -201.17669841647148, 0.0, 0.0, 0.9920000471174717, 0.0, 0.0, 0.0, 0.0, 0.0, 1.7411858918204896E9, 0.0, 2025-03-05 14:44:51.820
25.0, -47.6164062358439, -93.44140039291233, 14.86236242391169, -50.941177296452224, 0.0, 0.0, 0.9920000471174717, 0.0, 0.0, 0.0, 0.0, 0.0, 1.7411858918206468E9, 0.0, 2025-03-05 14:44:51.820
26.0, 119.22053078748286, 54.65863785240799, 6.877676018513739, 83.8560368064791, 0.0, 0.0, 0.9920000471174717, 0.0, 0.0, 0.0, 0.0, 0.0, 1.741185891850397E9, 0.0, 2025-03-05 14:44:51.850
26.0, -39.73643702920526, -101.26527110021561, 10.86440937127918, -58.151704411022365, 0.0, 0.0, 0.9920000471174717, 0.0, 0.0, 0.0, 0.0, 0.0, 1.7411858918504891E9, 0.0, 2025-03-05 14:44:51.850
27.0, -206.14702545758337, -248.7145667532459, 11.358076165430248, -196.26246987469494, 0.0, 0.0, 0.9920000471174717, 0.0, 0.0, 0.0, 0.0, 0.0, 1.7411858918508072E9, 0.0, 2025-03-05 14:44:51.850
27.0, -39.03333583753556, -88.84506334736943, 9.372189288958907, -41.58020770736039, 0.0, 0.0, 0.9920000471174717, 0.0, 0.0, 0.0, 0.0, 0.0, 1.741185891850874E9, 0.0, 2025-03-05 14:44:51.850
28.0, 124.95379741955549, 54.00041546020657, 14.215359731577337, 69.27790677919984, 0.0, 0.0, 0.9920000471174717, 0.0, 0.0, 0.0, 0.0, 0.0, 1.7411858918515468E9, 0.0, 2025-03-05 14:44:51.851
28.0, -43.304301586933434, -109.051742807962, 11.186040767468512, -52.467056478373706, 0.0, 0.0, 0.9920000471174717, 0.0, 0.0, 0.0, 0.0, 0.0, 1.74118589185162E9, 0.0, 2025-03-05 14:44:51.851
29.0, -214.4720427589491, -261.2731508044526, 11.511412063613534, -197.36948026157916, 0.0, 0.0, 0.9920000471174717, 0.0, 0.0, 0.0, 0.0, 0.0, 1.7411858918523655E9, 0.0, 2025-03-05 14:44:51.852
29.0, -46.068087654188275, -89.05075784493238, 10.688634073361754, -53.50300876609981, 0.0, 0.0, 0.9920000471174717, 0.0, 0.0, 0.0, 0.0, 0.0, 1.741185891852418E9, 0.0, 2025-03-05 14:44:51.852
30.0, 129.38557886704803, 53.18885716982186, 9.25251249037683, 79.04652546346188, 0.0, 0.0, 0.9920000471174717, 0.0, 0.0, 0.0, 0.0, 0.0, 1.741185891880463E9, 0.0, 2025-03-05 14:44:51.880
30.0, -47.650065335445106, -103.46059237420559, 7.969726805575192, -67.37055780179799, 0.0, 0.0, 0.9920000471174717, 0.0, 0.0, 0.0, 0.0, 0.0, 1.7411858918806036E9, 0.0, 2025-03-05 14:44:51.880
31.0, -210.0290416115895, -244.6305960016325, 9.159014991484582, -194.08584810048342, 0.0, -0.01600000075995922, 0.9920000471174717, 0.0, 0.0, 0.0, 0.0, 0.0, 1.7411858918813157E9, 0.0, 2025-03-05 14:44:51.881
31.0, -45.278968763537705, -81.60461703315377, 12.165894555859268, -51.24036929290742, 0.0, -0.01600000075995922, 0.9920000471174717, 0.0, 0.0, 0.0, 0.0, 0.0, 1.7411858918813844E9, 0.0, 2025-03-05 14:44:51.881
32.0, 122.12269315309823, 55.1373450467363, 15.232612519524992, 77.53560588136315, -0.01600000075995922, -0.01600000075995922, 0.9920000471174717, 0.0, 0.0, 0.0, 0.0, 0.0, 1.7411858918818247E9, 0.0, 2025-03-05 14:44:51.881
32.0, -43.248203087598085, -109.89322029799223, 10.168787979520857, -61.86542506702244, -0.01600000075995922, -0.01600000075995922, 0.9920000471174717, 0.0, 0.0, 0.0, 0.0, 0.0, 1.741185891881966E9, 0.0, 2025-03-05 14:44:51.881
33.0, -213.5482874698937, -249.12595574837178, 11.986379357986152, -188.386240568012, -0.01600000075995922, -0.01600000075995922, 0.9920000471174717, 0.0, 0.0, 0.0, 0.0, 0.0, 1.7411858918822875E9, 0.0, 2025-03-05 14:44:51.882
33.0, -41.45679100882262, -83.58302410971373, 6.84027701895684, -55.20092334598303, -0.01600000075995922, -0.01600000075995922, 0.9920000471174717, 0.0, 0.0, 0.0, 0.0, 0.0, 1.7411858918823662E9, 0.0, 2025-03-05 14:44:51.882
34.0, 119.8002152806148, 56.77542122732848, 11.118722568266094, 77.1129971863702, -0.01600000075995922, -0.01600000075995922, 0.9920000471174717, 0.0, 0.0, 0.0, 0.0, 0.0, 1.7411858919112594E9, 0.0, 2025-03-05 14:44:51.911
34.0, -52.35485947970301, -116.22487092297524, 12.379068853333592, -72.86447083670646, -0.01600000075995922, -0.01600000075995922, 0.9920000471174717, 0.0, 0.0, 0.0, 0.0, 0.0, 1.741185891911418E9, 0.0, 2025-03-05 14:44:51.911
35.0, -213.44731017109007, -248.61732935439795, 12.951273546554148, -191.47539793141186, -0.01600000075995922, -0.01600000075995922, 0.9920000471174717, 0.0, 0.0, 0.0, 0.0, 0.0, 1.7411858919117682E9, 0.0, 2025-03-05 14:44:51.911
35.0, -42.99014999065548, -82.80512491893023, 10.06033088080585, -43.700730982236564, -0.01600000075995922, -0.01600000075995922, 0.9920000471174717, 0.0, 0.0, 0.0, 0.0, 0.0, 1.7411858919118288E9, 0.0, 2025-03-05 14:44:51.911
36.0, 119.54590208362788, 53.357152667827904, 10.580176974646747, 79.67108875606209, -0.01600000075995922, -0.01600000075995922, 0.9920000471174717, 0.0, 0.0, 0.0, 0.0, 0.0, 1.7411858919120128E9, 0.0, 2025-03-05 14:44:51.912
36.0, -48.547641324810684, -116.47170432005078, 12.618422450497746, -68.09235849324614, -0.01600000075995922, -0.01600000075995922, 0.9920000471174717, 0.0, 0.0, 0.0, 0.0, 0.0, 1.7411858919121032E9, 0.0, 2025-03-05 14:44:51.912
37.0, -212.5459942817688, -246.79225817602128, 14.234059231355786, -184.8632548097521, -0.01600000075995922, -0.01600000075995922, 0.9920000471174717, 0.0, 0.0, 0.0, 0.0, 0.0, 1.7411858919403803E9, 0.0, 2025-03-05 14:44:51.940
37.0, -41.666225406341255, -83.20155431423336, 11.361816065385938, -51.41240469086915, -0.01600000075995922, -0.01600000075995922, 0.9920000471174717, 0.0, 0.0, 0.0, 0.0, 0.0, 1.7411858919404652E9, 0.0, 2025-03-05 14:44:51.940
38.0, 122.2797689512372, 56.01996143627912, 14.379915329627693, 82.3750364240259, -0.01600000075995922, -0.01600000075995922, 0.9920000471174717, 0.0, 0.0, 0.0, 0.0, 0.0, 1.7411858919408567E9, 0.0, 2025-03-05 14:44:51.940
38.0, -51.41988449078053, -115.53298943117261, 11.436614064499736, -75.96858779992908, -0.01600000075995922, -0.01600000075995922, 0.9920000471174717, 0.0, 0.0, 0.0, 0.0, 0.0, 1.7411858919409513E9, 0.0, 2025-03-05 14:44:51.940
39.0, -211.2519888971001, -253.827009992674, 10.307164277881384, -189.07812205981463, -0.01600000075995922, -0.01600000075995922, 0.9920000471174717, 0.0, 0.0, 0.0, 0.0, 0.0, 1.7411858919415216E9, 0.0, 2025-03-05 14:44:51.941
39.0, -32.23419771809131, -73.14870323333889, 13.070950345136225, -41.84948050417006, -0.01600000075995922, -0.01600000075995922, 0.9920000471174717, 0.0, 0.0, 0.0, 0.0, 0.0, 1.7411858919415727E9, 0.0, 2025-03-05 14:44:51.941
40.0, 110.15501329489052, 46.73752974625677, 10.647495173849165, 74.19961512088776, -0.01600000075995922, -0.01600000075995922, 1.008000047877431, 0.0, 0.0, 0.0, 0.0, 0.0, 1.7411858919704158E9, 0.0, 2025-03-05 14:44:51.970
40.0, -64.23278173897415, -100.84266240522265, 16.403201205655932, -73.63489022757858, -0.01600000075995922, -0.01600000075995922, 1.008000047877431, 0.0, 0.0, 0.0, 0.0, 0.0, 1.7411858919704742E9, 0.0, 2025-03-05 14:44:51.970
41.0, -220.9944282816723, -204.92033827211708, 11.724586361087859, -194.717891192995, -0.01600000075995922, 0.0, 1.008000047877431, 0.0, 0.0, 0.0, 0.0, 0.0, 1.7411858919708564E9, 0.0, 2025-03-05 14:44:51.970
41.0, -60.64247778151184, -20.56196995638311, 12.263131954707205, -52.130465482361615, -0.01600000075995922, 0.0, 1.008000047877431, 0.0, 0.0, 0.0, 0.0, 0.0, 1.741185891970904E9, 0.0, 2025-03-05 14:44:51.970
42.0, 97.58520954381675, 137.92377046588808, 12.805417448282242, 70.54573286417872, -0.01600000075995922, 0.0, 1.008000047877431, 0.0, 0.0, 0.0, 0.0, 0.0, 1.7411858919715233E9, 0.0, 2025-03-05 14:44:51.971
42.0, -89.31629074178636, -26.332635588012636, 16.0815698094666, -92.17731420788914, -0.01600000075995922, 0.0, 1.008000047877431, 0.0, 0.0, 0.0, 0.0, 0.0, 1.741185891971595E9, 0.0, 2025-03-05 14:44:51.971
43.0, -251.69152711797506, -146.70505556184798, 10.423101176507771, -202.36224670242518, -0.01600000075995922, 0.0, 1.008000047877431, 0.0, 0.0, 0.0, 0.0, 0.0, 1.7411858920003312E9, 0.0, 2025-03-05 14:44:52.000
43.0, -77.18031538557261, 15.969372810795903, 14.159261232241988, -60.178730187006295, -0.01600000075995922, 0.0, 1.008000047877431, 0.0, 0.0, 0.0, 0.0, 0.0, 1.7411858920004325E9, 0.0, 2025-03-05 14:44:52.000
44.0, 85.63996908534318, 147.09400515723974, 12.195813755504787, 61.49891487136483, -0.01600000075995922, 0.0, 1.008000047877431, 0.0, 0.0, 0.0, 0.0, 0.0, 1.7411858920008988E9, 0.0, 2025-03-05 14:44:52.000
44.0, -93.98368588648736, -36.57622156664729, 13.029811445623636, -90.2998844301328, -0.01600000075995922, 0.0, 1.008000047877431, 0.0, 0.0, 0.0, 0.0, 0.0, 1.741185892001004E9, 0.0, 2025-03-05 14:44:52.001
45.0, -245.96200038585812, -177.89208129234612, 16.03669100999832, -216.05776034016162, -0.01600000075995922, 0.0, 1.008000047877431, 0.0, 0.0, 0.0, 0.0, 0.0, 1.741185892001444E9, 0.0, 2025-03-05 14:44:52.001
45.0, -73.04024613462389, -11.597429762594402, 13.055990745313466, -49.12732581794262, -0.01600000075995922, 0.0, 1.008000047877431, 0.0, 0.0, 0.0, 0.0, 0.0, 1.741185892001577E9, 0.0, 2025-03-05 14:44:52.001
46.0, 87.32292406540364, 115.21509793493897, 11.215959967114031, 65.10791832860559, -0.01600000075995922, 0.0, 1.008000047877431, 0.0, 0.0, 0.0, 0.0, 0.0, 1.741185892030571E9, 0.0, 2025-03-05 14:44:52.030
46.0, -94.20060008391738, -62.127218063920736, 15.629041914828122, -90.09792983252555, -0.01600000075995922, 0.0, 1.008000047877431, 0.0, 0.0, 0.0, 0.0, 0.0, 1.74118589203071E9, 0.0, 2025-03-05 14:44:52.030
47.0, -251.82990341633558, -203.5814540879801, 13.30656404234469, -205.5449015647173, -0.01600000075995922, 0.0, 1.008000047877431, 0.0, 0.0, 0.0, 0.0, 0.0, 1.741185892031597E9, 0.0, 2025-03-05 14:44:52.031
47.0, -63.825132643803954, -25.165786801837385, 12.614682550542057, -44.96481716725975, -0.01600000075995922, 0.0, 1.008000047877431, 0.0, 0.0, 0.0, 0.0, 0.0, 1.7411858920319235E9, 0.0, 2025-03-05 14:44:52.031
48.0, 96.58291635569185, 105.85412834584713, 11.616129262372851, 68.8104192847386, -0.01600000075995922, 0.0, 1.008000047877431, 0.0, 0.0, 0.0, 0.0, 0.0, 1.7411858920324051E9, 0.0, 2025-03-05 14:44:52.032
48.0, -108.73011141177267, -85.81200448330492, 10.696113873273134, -95.72273936588317, -0.01600000075995922, 0.0, 1.008000047877431, 0.0, 0.0, 0.0, 0.0, 0.0, 1.74118589203248E9, 0.0, 2025-03-05 14:44:52.032
49.0, -238.31390497647226, -197.23110396321863, 14.630488626658916, -197.23110396321863, -0.01600000075995922, 0.0, 1.008000047877431, 0.0, 0.0, 0.0, 0.0, 0.0, 1.7411858920605948E9, 0.0, 2025-03-05 14:44:52.060
49.0, -59.58782599400729, -32.19305881857872, 15.071796821430326, -52.066887183114886, -0.01600000075995922, 0.0, 1.008000047877431, 0.0, 0.0, 0.0, 0.0, 0.0, 1.7411858920607011E9, 0.0, 2025-03-05 14:44:52.060
50.0, 95.80127726495266, 101.20543270092458, 8.747625996358693, 68.41024998947978, -0.01600000075995922, 0.0, 0.9920000471174717, 0.0, 0.0, 0.0, 0.0, 0.0, 1.7411858920608535E9, 0.0, 2025-03-05 14:44:52.060
50.0, -88.83758354745805, -82.94724111724645, 11.436614064499736, -94.84012297634035, -0.01600000075995922, 0.0, 0.9920000471174717, 0.0, 0.0, 0.0, 0.0, 0.0, 1.7411858920609317E9, 0.0, 2025-03-05 14:44:52.060
51.0, -233.8148053297773, -202.3136280030012, 10.939207370392978, -200.73913012165576, -0.01600000075995922, 0.0, 0.9920000471174717, 0.0, 0.0, 0.0, 0.0, 0.0, 1.7411858920614927E9, 0.0, 2025-03-05 14:44:52.061
51.0, -49.89774520881474, -37.4625778561458, 10.632535574026406, -44.074720977805555, -0.01600000075995922, 0.0, 0.9920000471174717, 0.0, 0.0, 0.0, 0.0, 0.0, 1.7411858920616035E9, 0.0, 2025-03-05 14:44:52.061
52.0, 90.707533525303, 87.30796446558088, 14.129342032596469, 64.24400143884122, -0.01600000075995922, 0.0, 0.9920000471174717, 0.0, 0.0, 0.0, 0.0, 0.0, 1.7411858921065536E9, 0.0, 2025-03-05 14:44:52.106
52.0, -81.32412453647703, -86.1523353792727, 11.747025760821998, -87.77919185999781, -0.01600000075995922, 0.0, 0.9920000471174717, 0.0, 0.0, 0.0, 0.0, 0.0, 1.7411858921066415E9, 0.0, 2025-03-05 14:44:52.106
53.0, -232.479661045596, -214.16537096258253, 12.704440149478614, -197.91550565510988, -0.01600000075995922, 0.0, 0.9920000471174717, 0.0, 0.0, 0.0, 0.0, 0.0, 1.741185892106943E9, 0.0, 2025-03-05 14:44:52.106
53.0, -47.0217621428892, -35.08774138428271, 11.122462468221784, -46.71135044656694, -0.01600000075995922, 0.0, 0.9920000471174717, 0.0, 0.0, 0.0, 0.0, 0.0, 1.741185892107025E9, 0.0, 2025-03-05 14:44:52.107
54.0, 95.79379746504128, 80.53126574587077, 10.355782977305353, 57.98340891301632, -0.01600000075995922, 0.0, 0.9920000471174717, 0.0, 0.0, 0.0, 0.0, 0.0, 1.741185892107153E9, 0.0, 2025-03-05 14:44:52.107
54.0, -80.04133885167539, -85.45671398751438, 11.26831856649369, -90.58037692680955, -0.01600000075995922, 0.0, 0.9920000471174717, 0.0, 0.0, 0.0, 0.0, 0.0, 1.7411858921072896E9, 0.0, 2025-03-05 14:44:52.107
55.0, -228.63878379110247, -212.29542098473758, 12.244432454928756, -199.68073843419552, -0.01600000075995922, 0.0, 0.9920000471174717, 0.0, 0.0, 0.0, 0.0, 0.0, 1.7411858921205502E9, 0.0, 2025-03-05 14:44:52.120
55.0, -43.300561686977744, -36.12369367200881, 13.938607134856284, -49.617252712138, -0.01600000075995922, 0.0, 0.9920000471174717, 0.0, 0.0, 0.0, 0.0, 0.0, 1.7411858921206548E9, 0.0, 2025-03-05 14:44:52.120
56.0, 95.81997676473111, 81.19696793798357, 10.310904177837074, 61.18102337513119, -0.01600000075995922, 0.0, 0.9920000471174717, 0.0, 0.0, 0.0, 0.0, 0.0, 1.7411858921208465E9, 0.0, 2025-03-05 14:44:52.120
56.0, -86.35055007692426, -95.0458174739033, 16.810850300826132, -91.72478631325066, -0.01600000075995922, 0.0, 0.9920000471174717, 0.0, 0.0, 0.0, 0.0, 0.0, 1.741185892120936E9, 0.0, 2025-03-05 14:44:52.120
57.0, -227.11664450913668, -213.52210817020386, 16.380761805921793, -193.41266610845923, -0.01600000075995922, 0.0, 0.9920000471174717, 0.0, 0.0, 0.0, 0.0, 0.0, 1.741185892121467E9, 0.0, 2025-03-05 14:44:52.121
57.0, -44.56838777195662, -32.87746051046997, 18.224532484076917, -42.55632159579545, -0.01600000075995922, 0.0, 0.9920000471174717, 0.0, 0.0, 0.0, 0.0, 0.0, 1.741185892121554E9, 0.0, 2025-03-05 14:44:52.121
58.0, 95.77135806530714, 86.52632537484169, 10.303424377925694, 64.38985753711313, -0.01600000075995922, 0.0, 0.9920000471174717, 0.0, 0.0, 0.0, 0.0, 0.0, 1.7411858921508067E9, 0.0, 2025-03-05 14:44:52.150
58.0, -80.32557124830782, -94.21181978378445, 15.70010001398623, -85.77086558379233, -0.01600000075995922, 0.0, 0.9920000471174717, 0.0, 0.0, 0.0, 0.0, 0.0, 1.741185892150948E9, 0.0, 2025-03-05 14:44:52.150
59.0, -226.5930585153401, -219.39375110063702, 14.353736029937863, -200.84384732041508, -0.01600000075995922, 0.0, 0.9920000471174717, 0.0, 0.0, 0.0, 0.0, 0.0, 1.741185892151441E9, 0.0, 2025-03-05 14:44:52.151
59.0, -41.78964210487902, -39.34374753385782, 8.46339359972626, -42.64233929477632, -0.01600000075995922, 0.0, 0.9920000471174717, 0.0, 0.0, 0.0, 0.0, 0.0, 1.74118589215153E9, 0.0, 2025-03-05 14:44:52.151
60.0, 106.59088863711804, 86.6347824735567, 8.209080402739346, 64.16546353977174, -0.01600000075995922, 0.0, 0.9920000471174717, 0.0, 0.0, 0.0, 0.0, 0.0, 1.7411858921524093E9, 0.0, 2025-03-05 14:44:52.152
60.0, -92.83927650004625, -103.23993827681988, 10.165048079565167, -96.58291635569185, -0.01600000075995922, 0.0, 0.9920000471174717, 0.0, 0.0, 0.0, 0.0, 0.0, 1.7411858921525097E9, 0.0, 2025-03-05 14:44:52.152
61.0, -230.61345096770674, -216.38687153626233, 11.193520567379892, -204.82684077322483, -0.01600000075995922, 0.0, 0.9920000471174717, 0.0, 0.0, 0.0, 0.0, 0.0, 1.7411858921804385E9, 0.0, 2025-03-05 14:44:52.180
61.0, -26.773943782784045, -19.054790274240077, 8.747625996358693, -22.701192731037736, -0.01600000075995922, 0.0, 0.9920000471174717, 0.0, 0.0, 0.0, 0.0, 0.0, 1.7411858921805203E9, 0.0, 2025-03-05 14:44:52.180
62.0, 98.02651773858815, 76.71656779106706, 8.811204295605421, 69.27042697928846, -0.01600000075995922, 0.0, 0.9920000471174717, 0.0, 0.0, 0.0, 0.0, 0.0, 1.7411858921807575E9, 0.0, 2025-03-05 14:44:52.180
62.0, -101.23909180052578, -110.25599059369415, 11.571250462904572, -100.50981130916625, -0.01600000075995922, 0.0, 0.9920000471174717, 0.0, 0.0, 0.0, 0.0, 0.0, 1.7411858921808035E9, 0.0, 2025-03-05 14:44:52.180
63.0, -232.7003151429817, -221.8807845711708, 14.335036530159414, -191.6474333293736, -0.01600000075995922, 0.0, 0.9920000471174717, 0.0, 0.0, 0.0, 0.0, 0.0, 1.7411858921814637E9, 0.0, 2025-03-05 14:44:52.181
63.0, -43.58105418365449, -39.90099262725562, 8.904701794497669, -34.852127687074244, -0.01600000075995922, 0.0, 0.9920000471174717, 0.0, 0.0, 0.0, 0.0, 0.0, 1.741185892181614E9, 0.0, 2025-03-05 14:44:52.181
64.0, 97.68618684262037, 66.5851788111031, 8.227779902517796, 63.428703248500824, -0.01600000075995922, 0.0, 0.9920000471174717, 0.0, 0.0, 0.0, 0.0, 0.0, 1.7411858922103403E9, 0.0, 2025-03-05 14:44:52.210
64.0, -85.8194842832163, -108.99938420858234, 6.690681020729244, -83.74009990785271, -0.01600000075995922, 0.0, 0.9920000471174717, 0.0, 0.0, 0.0, 0.0, 0.0, 1.7411858922104504E9, 0.0, 2025-03-05 14:44:52.210
65.0, -225.93857602309436, -218.86642520688474, 9.110396292060614, -192.93021901417524, -0.01600000075995922, 0.0, 0.9920000471174717, 0.0, 0.0, 0.0, 0.0, 0.0, 1.7411858922108624E9, 0.0, 2025-03-05 14:44:52.210
65.0, -22.1963062370196, -35.09522118419409, 10.019191981293261, -24.52626390941441, -0.01600000075995922, 0.0, 0.9920000471174717, 0.0, 0.0, 0.0, 0.0, 0.0, 1.741185892211032E9, 0.0, 2025-03-05 14:44:52.211
66.0, 95.158014472574, 61.03142737690359, 12.551104251295328, 59.56912649422884, -0.01600000075995922, 0.0, 0.9920000471174717, 0.0, 0.0, 0.0, 0.0, 0.0, 1.7411858922114928E9, 0.0, 2025-03-05 14:44:52.211
66.0, -90.27370513044298, -116.65869931783527, 11.006525569595397, -103.84206216968596, -0.01600000075995922, 0.0, 0.9920000471174717, 0.0, 0.0, 0.0, 0.0, 0.0, 1.7411858922115543E9, 0.0, 2025-03-05 14:44:52.211
67.0, -219.9958749935031, -225.08961873315275, 8.46339359972626, -193.06485541258007, -0.01600000075995922, 0.0, 0.9920000471174717, 0.0, 0.0, 0.0, 0.0, 0.0, 1.7411858922404125E9, 0.0, 2025-03-05 14:44:52.240
67.0, -22.98168522771448, -44.22057707607746, 13.239245843142271, -28.94682565703988, -0.01600000075995922, 0.0, 0.9920000471174717, 0.0, 0.0, 0.0, 0.0, 0.0, 1.741185892240526E9, 0.0, 2025-03-05 14:44:52.240
68.0, 100.14330111350864, 66.27850701473653, 7.943547505885363, 74.06123882252723, -0.01600000075995922, 0.0, 0.9920000471174717, 0.0, 0.0, 0.0, 0.0, 0.0, 1.7411858922408395E9, 0.0, 2025-03-05 14:44:52.240
68.0, -85.3370371889323, -108.98068470880389, 13.512258539907634, -82.21796062588692, -0.01600000075995922, 0.0, 0.9920000471174717, 0.0, 0.0, 0.0, 0.0, 0.0, 1.7411858922409227E9, 0.0, 2025-03-05 14:44:52.240
69.0, -212.86014587804675, -223.67219664994627, 14.611789126880467, -179.9340666681528, -0.01600000075995922, 0.0, 0.9920000471174717, 0.0, 0.0, 0.0, 0.0, 0.0, 1.7411858922414894E9, 0.0, 2025-03-05 14:44:52.241
69.0, -19.619515167549253, -35.637506677769125, 12.44264715258032, -17.30077719502151, -0.01600000075995922, 0.0, 0.9920000471174717, 0.0, 0.0, 0.0, 0.0, 0.0, 1.7411858922415726E9, 0.0, 2025-03-05 14:44:52.241
70.0, 101.92723339237273, 62.42641006037593, 13.411281241104007, 72.1800691448152, -0.01600000075995922, 0.0, 0.9920000471174717, 0.0, 0.0, 0.0, 0.0, 0.0, 1.7411858922704852E9, 0.0, 2025-03-05 14:44:52.270
70.0, -90.21386673115194, -123.49523643683642, 12.610942650586367, -94.17068088427186, -0.01600000075995922, 0.0, 0.9920000471174717, 0.0, 0.0, 0.0, 0.0, 0.0, 1.741185892270604E9, 0.0, 2025-03-05 14:44:52.270
71.0, -216.8393994309008, -227.46071530506015, 3.418268559500575, -183.44209282658994, -0.01600000075995922, -0.01600000075995922, 0.9920000471174717, 0.0, 0.0, 0.0, 0.0, 0.0, 1.7411858922708828E9, 0.0, 2025-03-05 14:44:52.270
71.0, -18.688280078582466, -44.863839868456125, 10.774651772342622, -27.132974178530276, -0.01600000075995922, -0.01600000075995922, 0.9920000471174717, 0.0, 0.0, 0.0, 0.0, 0.0, 1.7411858922710493E9, 0.0, 2025-03-05 14:44:52.271
72.0, 109.12280090712011, 59.51676789484918, 12.566063851118088, 65.26499412674457, -0.01600000075995922, -0.01600000075995922, 0.9920000471174717, 0.0, 0.0, 0.0, 0.0, 0.0, 1.7411858922717152E9, 0.0, 2025-03-05 14:44:52.271
72.0, -84.60401679761708, -123.61117333546281, 12.86899574752897, -82.78642541915178, -0.01600000075995922, -0.01600000075995922, 0.9920000471174717, 0.0, 0.0, 0.0, 0.0, 0.0, 1.7411858922718604E9, 0.0, 2025-03-05 14:44:52.271
73.0, -218.35031901299953, -238.72155407164246, 14.750165425240993, -188.07956877164543, -0.01600000075995922, -0.01600000075995922, 0.9920000471174717, 0.0, 0.0, 0.0, 0.0, 0.0, 1.7411858923013031E9, 0.0, 2025-03-05 14:44:52.301
73.0, -18.254451683722436, -41.640046106651425, 11.567510562948883, -17.162400896660984, -0.01600000075995922, -0.01600000075995922, 0.9920000471174717, 0.0, 0.0, 0.0, 0.0, 0.0, 1.7411858923014596E9, 0.0, 2025-03-05 14:44:52.301
74.0, 108.21026531793177, 63.31650624983013, 7.894928806461394, 68.82537888456136, -0.01600000075995922, -0.01600000075995922, 0.9920000471174717, 0.0, 0.0, 0.0, 0.0, 0.0, 1.7411858923017533E9, 0.0, 2025-03-05 14:44:52.301
74.0, -92.36056930571795, -122.70237764623016, 11.459053464233875, -93.38904179353267, -0.01600000075995922, -0.01600000075995922, 0.9920000471174717, 0.0, 0.0, 0.0, 0.0, 0.0, 1.7411858923018277E9, 0.0, 2025-03-05 14:44:52.301
75.0, -211.03507469967008, -230.44889536965638, 13.747872237116098, -183.9768985202536, -0.01600000075995922, -0.01600000075995922, 0.9920000471174717, 0.0, 0.0, 0.0, 0.0, 0.0, 1.7411858923020191E9, 0.0, 2025-03-05 14:44:52.302
75.0, -9.424547888338566, -33.77129659987986, 11.997599057853222, -12.547364351339638, -0.01600000075995922, -0.01600000075995922, 0.9920000471174717, 0.0, 0.0, 0.0, 0.0, 0.0, 1.7411858923021283E9, 0.0, 2025-03-05 14:44:52.302
76.0, 104.72093865927309, 63.06967285275459, 11.440353964455426, 65.76614072080702, -0.01600000075995922, -0.01600000075995922, 0.9920000471174717, 0.0, 0.0, 0.0, 0.0, 0.0, 1.7411858923305924E9, 0.0, 2025-03-05 14:44:52.330
76.0, -92.95147349871695, -124.30679472722113, 8.8560830950737, -89.99695253372192, -0.01600000075995922, -0.01600000075995922, 0.9920000471174717, 0.0, 0.0, 0.0, 0.0, 0.0, 1.7411858923307E9, 0.0, 2025-03-05 14:44:52.330
77.0, -220.90467068273574, -225.71418202575296, 9.779838384129107, -183.62160802446306, -0.01600000075995922, -0.01600000075995922, 0.9920000471174717, 0.0, 0.0, 0.0, 0.0, 0.0, 1.7411858923310554E9, 0.0, 2025-03-05 14:44:52.331
77.0, -22.5665563326329, -43.50625618454069, 11.956460158340633, -22.56281643267721, -0.01600000075995922, -0.01600000075995922, 0.9920000471174717, 0.0, 0.0, 0.0, 0.0, 0.0, 1.741185892331144E9, 0.0, 2025-03-05 14:44:52.331
78.0, 91.38445541728288, 57.702916416339576, 12.521185051649809, 67.70340889785439, -0.01600000075995922, -0.01600000075995922, 0.9920000471174717, 0.0, 0.0, 0.0, 0.0, 0.0, 1.7411858923315918E9, 0.0, 2025-03-05 14:44:52.331
78.0, -105.93640614487231, -130.48884935397655, 10.022931881248951, -100.09842231404036, -0.01600000075995922, -0.01600000075995922, 0.9920000471174717, 0.0, 0.0, 0.0, 0.0, 0.0, 1.7411858923316815E9, 0.0, 2025-03-05 14:44:52.331
79.0, -222.32209276594222, -225.80019972473383, 15.034397821873426, -187.73549797572196, -0.01600000075995922, -0.01600000075995922, 0.9920000471174717, 0.0, 0.0, 0.0, 0.0, 0.0, 1.7411858923616085E9, 0.0, 2025-03-05 14:44:52.361
79.0, -12.91387454699725, -34.08170829620212, 13.070950345136225, -16.234905707649887, -0.01600000075995922, -0.01600000075995922, 0.9920000471174717, 0.0, 0.0, 0.0, 0.0, 0.0, 1.7411858923617556E9, 0.0, 2025-03-05 14:44:52.361
80.0, 106.48243153840303, 61.420376972295344, 11.589949962683022, 65.85215841978788, -0.01600000075995922, -0.01600000075995922, 1.008000047877431, 0.0, 0.0, 0.0, 0.0, 0.0, 1.7411858923619409E9, 0.0, 2025-03-05 14:44:52.361
80.0, -89.42474784050137, -127.25757579226047, 11.541331263259053, -93.03375129774213, -0.01600000075995922, -0.01600000075995922, 1.008000047877431, 0.0, 0.0, 0.0, 0.0, 0.0, 1.7411858923621244E9, 0.0, 2025-03-05 14:44:52.362
81.0, -202.94193119555712, -222.9242166588083, 11.601169662550092, -177.18524020072073, -0.01600000075995922, 0.0, 1.008000047877431, 0.0, 0.0, 0.0, 0.0, 0.0, 1.741185892362383E9, 0.0, 2025-03-05 14:44:52.362
81.0, -6.671981520950794, -33.958291597664356, 9.67886108532548, -10.83449017163366, -0.01600000075995922, 0.0, 1.008000047877431, 0.0, 0.0, 0.0, 0.0, 0.0, 1.741185892362486E9, 0.0, 2025-03-05 14:44:52.362
82.0, 114.71769124083221, 59.363431996665895, 15.464486316777766, 67.66974979825318, -0.01600000075995922, 0.0, 1.008000047877431, 0.0, 0.0, 0.0, 0.0, 0.0, 1.741185892390555E9, 0.0, 2025-03-05 14:44:52.390
82.0, -87.34536346513778, -132.1381452344358, 12.001338957808912, -97.43935344554484, -0.01600000075995922, 0.0, 1.008000047877431, 0.0, 0.0, 0.0, 0.0, 0.0, 1.741185892390685E9, 0.0, 2025-03-05 14:44:52.390
83.0, -209.5054556177929, -230.5124736689031, 7.139469015412033, -171.44449376873672, -0.01600000075995922, 0.0, 1.008000047877431, 0.0, 0.0, 0.0, 0.0, 0.0, 1.7411858923909395E9, 0.0, 2025-03-05 14:44:52.390
83.0, -6.724340120330453, -33.206571706570685, 4.01665255241096, -13.519738339819014, -0.01600000075995922, 0.0, 1.008000047877431, 0.0, 0.0, 0.0, 0.0, 0.0, 1.7411858923910377E9, 0.0, 2025-03-05 14:44:52.391
84.0, 104.92663315683603, 58.00958821270615, 9.895775282755494, 64.9545824304223, -0.01600000075995922, 0.0, 1.008000047877431, 0.0, 0.0, 0.0, 0.0, 0.0, 1.7411858923915317E9, 0.0, 2025-03-05 14:44:52.391
84.0, -99.11482862569392, -130.27193515654653, 16.986625598743558, -101.93097329232842, -0.01600000075995922, 0.0, 1.008000047877431, 0.0, 0.0, 0.0, 0.0, 0.0, 1.741185892391612E9, 0.0, 2025-03-05 14:44:52.391
85.0, -207.58688694052398, -219.4049708005041, 16.597676003351808, -179.0813694782555, -0.01600000075995922, 0.0, 1.008000047877431, 0.0, 0.0, 0.0, 0.0, 0.0, 1.7411858924204223E9, 0.0, 2025-03-05 14:44:52.420
85.0, 4.117629851214588, -17.588749491609633, 15.849696012213826, -4.01291265245527, -0.01600000075995922, 0.0, 1.008000047877431, 0.0, 0.0, 0.0, 0.0, 0.0, 1.741185892420588E9, 0.0, 2025-03-05 14:44:52.420
86.0, 101.40738729853183, 56.22191603388637, 8.893482094630599, 67.24714110326022, -0.01600000075995922, 0.0, 1.008000047877431, 0.0, 0.0, 0.0, 0.0, 0.0, 1.7411858924208393E9, 0.0, 2025-03-05 14:44:52.420
86.0, -98.28831073548645, -132.3587993318215, 14.656667926348746, -97.38325494620949, -0.01600000075995922, 0.0, 1.008000047877431, 0.0, 0.0, 0.0, 0.0, 0.0, 1.7411858924208968E9, 0.0, 2025-03-05 14:44:52.420
87.0, -208.1740512335673, -221.60403197444975, 12.248172354884446, -184.10031521879137, -0.01600000075995922, 0.0, 1.008000047877431, 0.0, 0.0, 0.0, 0.0, 0.0, 1.741185892421714E9, 0.0, 2025-03-05 14:44:52.421
87.0, -1.2678260849788785, -26.826302382163703, 10.232366278767586, -8.500792599283159, -0.01600000075995922, 0.0, 1.008000047877431, 0.0, 0.0, 0.0, 0.0, 0.0, 1.7411858924218495E9, 0.0, 2025-03-05 14:44:52.421
88.0, 111.44527877960354, 63.028533953242004, 12.839076547883451, 70.34003836661577, -0.01600000075995922, 0.0, 1.008000047877431, 0.0, 0.0, 0.0, 0.0, 0.0, 1.7411858924505193E9, 0.0, 2025-03-05 14:44:52.450
88.0, -94.01360508613288, -137.31416677311063, 13.953566734679043, -98.99889172706753, -0.01600000075995922, 0.0, 1.008000047877431, 0.0, 0.0, 0.0, 0.0, 0.0, 1.7411858924506383E9, 0.0, 2025-03-05 14:44:52.450
89.0, -206.25548255629838, -229.30074608325958, 8.549411298707128, -178.25111168809235, -0.01600000075995922, 0.0, 1.008000047877431, 0.0, 0.0, 0.0, 0.0, 0.0, 1.7411858924510157E9, 0.0, 2025-03-05 14:44:52.451
89.0, 0.684401691891253, -28.426979563198984, 11.66848786175251, -16.190026908181608, -0.01600000075995922, 0.0, 1.008000047877431, 0.0, 0.0, 0.0, 0.0, 0.0, 1.741185892451219E9, 0.0, 2025-03-05 14:44:52.451
90.0, 100.84266240522265, 55.698330040089786, 7.090850315988064, 63.017314253374934, -0.01600000075995922, 0.0, 0.9920000471174717, 0.0, 0.0, 0.0, 0.0, 0.0, 1.7411858924516342E9, 0.0, 2025-03-05 14:44:52.451
90.0, -105.59233534894884, -143.1409309040755, 14.234059231355786, -109.07792210765183, -0.01600000075995922, 0.0, 0.9920000471174717, 0.0, 0.0, 0.0, 0.0, 0.0, 1.7411858924517436E9, 0.0, 2025-03-05 14:44:52.451
91.0, -205.81043446157128, -217.96884921751916, 15.475706016644835, -180.6409077597782, -0.01600000075995922, 0.0, 0.9920000471174717, 0.0, 0.0, 0.0, 0.0, 0.0, 1.7411858924805896E9, 0.0, 2025-03-05 14:44:52.480
91.0, -2.01206617616117, -27.43590607494116, 10.05659098085016, -9.435767588205636, -0.01600000075995922, 0.0, 0.9920000471174717, 0.0, 0.0, 0.0, 0.0, 0.0, 1.7411858924807053E9, 0.0, 2025-03-05 14:44:52.480
92.0, 114.91590593848377, 60.67613688111305, 8.343716801144183, 77.90211607702076, -0.01600000075995922, 0.0, 0.9920000471174717, 0.0, 0.0, 0.0, 0.0, 0.0, 1.7411858924809077E9, 0.0, 2025-03-05 14:44:52.480
92.0, -101.08201600238681, -141.74594822060317, 14.989519022405148, -107.73903792351484, -0.01600000075995922, 0.0, 0.9920000471174717, 0.0, 0.0, 0.0, 0.0, 0.0, 1.7411858924810252E9, 0.0, 2025-03-05 14:44:52.481
93.0, -207.44851064216346, -222.68860296159983, 12.46882645227015, -179.89292776864022, -0.01600000075995922, 0.0, 0.9920000471174717, 0.0, 0.0, 0.0, 0.0, 0.0, 1.741185892481584E9, 0.0, 2025-03-05 14:44:52.481
93.0, -2.651589068584144, -32.08086181990802, 13.493559040129185, -17.585009591653943, -0.01600000075995922, 0.0, 0.9920000471174717, 0.0, 0.0, 0.0, 0.0, 0.0, 1.7411858924816897E9, 0.0, 2025-03-05 14:44:52.481
94.0, 98.44912643358111, 47.343393539078534, 11.948980358429253, 63.757814444601536, -0.01600000075995922, 0.0, 0.9920000471174717, 0.0, 0.0, 0.0, 0.0, 0.0, 1.7411858925104706E9, 0.0, 2025-03-05 14:44:52.510
94.0, -103.39701407495886, -144.5882721869275, 16.406941105611622, -112.64578666538, -0.01600000075995922, 0.0, 0.9920000471174717, 0.0, 0.0, 0.0, 0.0, 0.0, 1.7411858925106547E9, 0.0, 2025-03-05 14:44:52.510
95.0, -200.0210693301633, -215.41449754778296, 13.747872237116098, -172.58890315517783, -0.01600000075995922, 0.0, 0.9920000471174717, 0.0, 0.0, 0.0, 0.0, 0.0, 1.7411858925109193E9, 0.0, 2025-03-05 14:44:52.510
95.0, 3.7585994554683566, -25.053589803166687, 8.526971898972988, -8.796244695782661, -0.01600000075995922, 0.0, 0.9920000471174717, 0.0, 0.0, 0.0, 0.0, 0.0, 1.7411858925110362E9, 0.0, 2025-03-05 14:44:52.511
96.0, 100.80526340566576, 59.2138359984383, 8.250219302251935, 65.54174672346562, -0.01600000075995922, 0.0, 0.9920000471174717, 0.0, 0.0, 0.0, 0.0, 0.0, 1.7411858925116715E9, 0.0, 2025-03-05 14:44:52.511
96.0, -107.15187363047153, -134.7672949032858, 11.825563659891486, -100.10216221399605, -0.01600000075995922, 0.0, 0.9920000471174717, 0.0, 0.0, 0.0, 0.0, 0.0, 1.7411858925117805E9, 0.0, 2025-03-05 14:44:52.511
97.0, -205.4289646660909, -216.22979573812336, 14.559430527500808, -180.4539127619937, -0.01600000075995922, 0.0, 0.9920000471174717, 0.0, 0.0, 0.0, 0.0, 0.0, 1.7411858925410228E9, 0.0, 2025-03-05 14:44:52.541
97.0, 3.579084257595241, -24.268210812471807, 12.764278548769653, -7.778991907835007, -0.01600000075995922, 0.0, 0.9920000471174717, 0.0, 0.0, 0.0, 0.0, 0.0, 1.7411858925411024E9, 0.0, 2025-03-05 14:44:52.541
98.0, 112.20447847060859, 60.560199982486665, 10.224886478856206, 73.96774132363498, -0.01600000075995922, 0.0, 0.9920000471174717, 0.0, 0.0, 0.0, 0.0, 0.0, 1.7411858925414207E9, 0.0, 2025-03-05 14:44:52.541
98.0, -109.84834149852395, -143.810372996144, 15.640261614695191, -111.59487477783114, -0.01600000075995922, 0.0, 0.9920000471174717, 0.0, 0.0, 0.0, 0.0, 0.0, 1.7411858925415344E9, 0.0, 2025-03-05 14:44:52.541
99.0, -209.83456681389362, -228.7734201895073, 16.238645607605577, -180.7119658589363, -0.01600000075995922, 0.0, 0.9920000471174717, 0.0, 0.0, 0.0, 0.0, 0.0, 1.7411858925417445E9, 0.0, 2025-03-05 14:44:52.541
99.0, 11.096283168531954, -18.47510578110814, 12.44638705253601, -8.414774900302291, -0.01600000075995922, 0.0, 0.9920000471174717, 0.0, 0.0, 0.0, 0.0, 0.0, 1.7411858925418448E9, 0.0, 2025-03-05 14:44:52.541
100.0, 100.42753351014107, 49.736929510720074, 11.182300867512822, 64.6628702338785, -0.01600000075995922, 0.0, 1.008000047877431, 0.0, 0.0, 0.0, 0.0, 0.0, 1.7411858925708303E9, 0.0, 2025-03-05 14:44:52.570
100.0, -108.55059621389955, -149.45014212932438, 13.452420140616596, -110.01663699653, -0.01600000075995922, 0.0, 1.008000047877431, 0.0, 0.0, 0.0, 0.0, 0.0, 1.741185892571016E9, 0.0, 2025-03-05 14:44:52.571
0.0, -202.49688310083002, -220.07254294259474, 13.022331645712256, -178.46241603558883, -0.01600000075995922, 0.0, 1.008000047877431, 0.0, 0.0, 0.0, 0.0, 0.0, 1.7411858925713625E9, 0.0, 2025-03-05 14:44:52.571
1.0, 12.427687552757561, -21.726948792580515, 8.298838001675904, 1.090180837083608, -0.01600000075995922, 0.0, 1.008000047877431, 0.0, 0.0, 0.0, 0.0, 0.0, 1.741185892571622E9, 0.0, 2025-03-05 14:44:52.571
1.0, 101.89731419272721, 49.27505186619237, 9.25999229028821, 58.50138505687937, -0.01600000075995922, 0.0, 1.008000047877431, 0.0, 0.0, 0.0, 0.0, 0.0, 1.7411858925717485E9, 0.0, 2025-03-05 14:44:52.571
2.0, -110.81697558704764, -149.309895880986, 9.536744887009263, -115.43762198230252, -0.01600000075995922, 0.0, 1.008000047877431, 0.0, 0.0, 0.0, 0.0, 0.0, 1.7411858925724547E9, 0.0, 2025-03-05 14:44:52.572
2.0, -198.89535944350064, -214.57489000773057, 12.700700249522924, -170.03268153546378, -0.01600000075995922, 0.0, 1.008000047877431, 0.0, 0.0, 0.0, 0.0, 0.0, 1.7411858925725465E9, 0.0, 2025-03-05 14:44:52.572
3.0, 9.22259329073131, -19.404470920097083, 7.670534809119999, -2.376706421840936, -0.01600000075995922, 0.0, 1.008000047877431, 0.0, 0.0, 0.0, 0.0, 0.0, 1.741185892600684E9, 0.0, 2025-03-05 14:44:52.600
3.0, 96.95690635126084, 48.8187840715982, 7.999646005220711, 60.019784438889474, -0.01600000075995922, 0.0, 1.008000047877431, 0.0, 0.0, 0.0, 0.0, 0.0, 1.7411858926007948E9, 0.0, 2025-03-05 14:44:52.600
4.0, -113.89117335062474, -152.4663714435883, 10.583916874602437, -116.15942267375067, -0.01600000075995922, 0.0, 1.008000047877431, 0.0, 0.0, 0.0, 0.0, 0.0, 1.7411858926009777E9, 0.0, 2025-03-05 14:44:52.600
4.0, -195.55562878306955, -213.59503621933982, 12.999892245978117, -181.83206589566544, -0.01600000075995922, 0.0, 1.008000047877431, 0.0, 0.0, 0.0, 0.0, 0.0, 1.7411858926010623E9, 0.0, 2025-03-05 14:44:52.601
5.0, 14.413574429228902, -18.499415130820125, 10.378222377039492, -0.08414774900302291, -0.01600000075995922, 0.0, 1.008000047877431, 0.0, 0.0, 0.0, 0.0, 0.0, 1.741185892630473E9, 0.0, 2025-03-05 14:44:52.630
5.0, 99.81418991740793, 44.35334352450445, 12.86151594761759, 61.130534725729376, -0.01600000075995922, 0.0, 1.008000047877431, 0.0, 0.0, 0.0, 0.0, 0.0, 1.7411858926305842E9, 0.0, 2025-03-05 14:44:52.630
6.0, -111.56121567822993, -156.08659460069612, 11.571250462904572, -106.24494789121673, -0.01600000075995922, 0.0, 1.008000047877431, 0.0, 0.0, 0.0, 0.0, 0.0, 1.7411858926308687E9, 0.0, 2025-03-05 14:44:52.630
6.0, -199.2095110397786, -214.02138481428847, 14.271458230912685, -172.1345053105615, -0.01600000075995922, 0.0, 1.008000047877431, 0.0, 0.0, 0.0, 0.0, 0.0, 1.741185892630938E9, 0.0, 2025-03-05 14:44:52.630
7.0, 13.803970736451447, -18.159084234852344, 10.88684877101332, -0.7909888406284153, -0.01600000075995922, 0.0, 1.008000047877431, 0.0, 0.0, 0.0, 0.0, 0.0, 1.741185892631576E9, 0.0, 2025-03-05 14:44:52.631
7.0, 99.09986902587116, 45.14620231511071, 13.355182741768658, 60.18060013698414, -0.01600000075995922, 0.0, 1.008000047877431, 0.0, 0.0, 0.0, 0.0, 0.0, 1.741185892631683E9, 0.0, 2025-03-05 14:44:52.631
8.0, -118.41645229700953, -154.81876851571724, 14.694066925905645, -115.516159881372, -0.01600000075995922, 0.0, 1.008000047877431, 0.0, 0.0, 0.0, 0.0, 0.0, 1.7411858926323328E9, 0.0, 2025-03-05 14:44:52.632
8.0, -205.85905316099524, -227.76925705140457, 12.405248153023422, -180.59415901033208, -0.01600000075995922, 0.0, 1.008000047877431, 0.0, 0.0, 0.0, 0.0, 0.0, 1.7411858926323922E9, 0.0, 2025-03-05 14:44:52.632
9.0, 18.763078077696264, -15.436437067110091, 9.959353582002223, 3.4837168087251484, -0.01600000075995922, 0.0, 1.008000047877431, 0.0, 0.0, 0.0, 0.0, 0.0, 1.74118589266053E9, 0.0, 2025-03-05 14:44:52.660
9.0, 98.31075013522059, 43.018199240323156, 9.607802986167371, 59.05863015027717, -0.01600000075995922, 0.0, 1.008000047877431, 0.0, 0.0, 0.0, 0.0, 0.0, 1.741185892660637E9, 0.0, 2025-03-05 14:44:52.660
10.0, -115.29737573396415, -159.1645322642289, 11.28701806627214, -124.50687937485054, -0.01600000075995922, 0.0, 1.008000047877431, 0.0, 0.0, 0.0, 0.0, 0.0, 1.7411858926609356E9, 0.0, 2025-03-05 14:44:52.660
10.0, -199.33666763827205, -218.65138095943257, 11.69092726148665, -174.7673948793672, -0.01600000075995922, 0.0, 1.008000047877431, 0.0, 0.0, 0.0, 0.0, 0.0, 1.741185892660998E9, 0.0, 2025-03-05 14:44:52.660
11.0, 12.10231625661254, -17.85989223839715, 10.628795674070716, 5.387325886171311, -0.01600000075995922, -0.01600000075995922, 1.008000047877431, 0.0, 0.0, 0.0, 0.0, 0.0, 1.7411858926905718E9, 0.0, 2025-03-05 14:44:52.690
11.0, 103.8271025698632, 49.60790296224877, 18.16843398474157, 60.47231233352795, -0.01600000075995922, -0.01600000075995922, 1.008000047877431, 0.0, 0.0, 0.0, 0.0, 0.0, 1.7411858926907055E9, 0.0, 2025-03-05 14:44:52.690
12.0, -111.62105407752097, -156.06415520096198, 9.880815682932734, -122.55465159798041, 0.0, -0.01600000075995922, 1.008000047877431, 0.0, 0.0, 0.0, 0.0, 0.0, 1.74118589269088E9, 0.0, 2025-03-05 14:44:52.690
12.0, -200.03976882994175, -218.51300466107205, 19.31284337118268, -179.3599920249544, 0.0, -0.01600000075995922, 1.008000047877431, 0.0, 0.0, 0.0, 0.0, 0.0, 1.7411858926909664E9, 0.0, 2025-03-05 14:44:52.690
13.0, 13.845109635964036, -15.761808363255113, 9.757398984394968, 5.271388987544924, 0.0, -0.01600000075995922, 1.008000047877431, 0.0, 0.0, 0.0, 0.0, 0.0, 1.7411858926915047E9, 0.0, 2025-03-05 14:44:52.691
13.0, 93.25066549517214, 39.861723677720875, 11.515151963569224, 52.764378524851054, 0.0, -0.01600000075995922, 1.008000047877431, 0.0, 0.0, 0.0, 0.0, 0.0, 1.7411858926915956E9, 0.0, 2025-03-05 14:44:52.691
14.0, -114.71021144092083, -165.19325099280104, 12.45760675240308, -126.31699095340446, 0.0, -0.01600000075995922, 1.008000047877431, 0.0, 0.0, 0.0, 0.0, 0.0, 1.741185892692493E9, 0.0, 2025-03-05 14:44:52.692
14.0, -195.04326248914003, -226.1648399704136, 12.427687552757561, -181.74978809664026, 0.0, -0.01600000075995922, 1.008000047877431, 0.0, 0.0, 0.0, 0.0, 0.0, 1.7411858926925747E9, 0.0, 2025-03-05 14:44:52.692
15.0, 22.13272793777287, -16.042300859931856, 8.919661394320428, 3.3640400101430714, 0.0, -0.01600000075995922, 1.008000047877431, 0.0, 0.0, 0.0, 0.0, 0.0, 1.7411858927210152E9, 0.0, 2025-03-05 14:44:52.721
15.0, 96.18274706043303, 34.08357824617997, 13.067210445180535, 50.14644855586812, 0.0, -0.01600000075995922, 1.008000047877431, 0.0, 0.0, 0.0, 0.0, 0.0, 1.7411858927210784E9, 0.0, 2025-03-05 14:44:52.721
16.0, -118.84280089195818, -168.7311963508837, 15.606602515093982, -128.97979972185567, 0.0, -0.01600000075995922, 1.008000047877431, 0.0, 0.0, 0.0, 0.0, 0.0, 1.7411858927211668E9, 0.0, 2025-03-05 14:44:52.721
16.0, -196.5766214709729, -220.81678303377703, 13.901208135299385, -176.97019595326856, 0.0, -0.01600000075995922, 1.008000047877431, 0.0, 0.0, 0.0, 0.0, 0.0, 1.74118589272126E9, 0.0, 2025-03-05 14:44:52.721
17.0, 30.035136544145644, -9.89390533277765, 8.923401294276118, 10.481069625820965, 0.0, -0.01600000075995922, 1.008000047877431, 0.0, 0.0, 0.0, 0.0, 0.0, 1.741185892750543E9, 0.0, 2025-03-05 14:44:52.750
17.0, 86.51136577501893, 34.2930126436986, 14.996998822316527, 45.2621392137371, 0.0, -0.01600000075995922, 1.008000047877431, 0.0, 0.0, 0.0, 0.0, 0.0, 1.741185892750643E9, 0.0, 2025-03-05 14:44:52.750
18.0, -122.64627914689481, -167.15295856958255, 9.978053081780672, -122.30781820090488, 0.0, -0.01600000075995922, 1.008000047877431, 0.0, 0.0, 0.0, 0.0, 0.0, 1.7411858927509036E9, 0.0, 2025-03-05 14:44:52.750
18.0, -196.6140204705298, -219.40684075048193, 10.183747579343617, -174.07551338756457, 0.0, -0.01600000075995922, 1.008000047877431, 0.0, 0.0, 0.0, 0.0, 0.0, 1.74118589275101E9, 0.0, 2025-03-05 14:44:52.751
19.0, 25.41636009886861, -15.032527871895581, 12.259392054751515, 2.1223932248540223, 0.0, -0.01600000075995922, 1.008000047877431, 0.0, 0.0, 0.0, 0.0, 0.0, 1.7411858927514968E9, 0.0, 2025-03-05 14:44:52.751
19.0, 90.11288943234831, 33.773166549857706, 6.750519420020282, 48.61682947399095, 0.0, -0.01600000075995922, 1.008000047877431, 0.0, 0.0, 0.0, 0.0, 0.0, 1.7411858927515829E9, 0.0, 2025-03-05 14:44:52.751
20.0, -132.07456693518907, -174.25502858543769, 10.359522877261043, -126.40300865238532, 0.0, -0.01600000075995922, 1.008000047877431, 0.0, 0.0, 0.0, 0.0, 0.0, 1.7411858927526145E9, 0.0, 2025-03-05 14:44:52.752
20.0, -187.98607127275318, -212.61892233090475, 10.722293172962964, -170.50016902992502, 0.0, -0.01600000075995922, 1.008000047877431, 0.0, 0.0, 0.0, 0.0, 0.0, 1.7411858927527132E9, 0.0, 2025-03-05 14:44:52.752
21.0, 27.271350476890802, -17.03337434818968, 7.992166205309331, 1.7521431292407215, 0.0, 0.0, 1.008000047877431, 0.0, 0.0, 0.0, 0.0, 0.0, 1.741185892780406E9, 0.0, 2025-03-05 14:44:52.780
21.0, 89.37986904103309, 29.50968060037121, 12.005078857764602, 48.79634467186406, 0.0, 0.0, 1.008000047877431, 0.0, 0.0, 0.0, 0.0, 0.0, 1.7411858927805033E9, 0.0, 2025-03-05 14:44:52.780
22.0, -123.39799903798848, -178.12582503957674, 13.545917639508843, -131.79594438849017, 0.0, 0.0, 1.008000047877431, 0.0, 0.0, 0.0, 0.0, 0.0, 1.741185892780854E9, 0.0, 2025-03-05 14:44:52.780
22.0, -198.54754874762148, -223.74138479912654, 13.534697939641774, -176.13245836319402, 0.0, 0.0, 1.008000047877431, 0.0, 0.0, 0.0, 0.0, 0.0, 1.7411858927809293E9, 0.0, 2025-03-05 14:44:52.780
23.0, 29.085201955400407, -5.637899183202535, 13.620715638622642, 14.69593687588349, 0.0, 0.0, 1.008000047877431, 0.0, 0.0, 0.0, 0.0, 0.0, 1.74118589281042E9, 0.0, 2025-03-05 14:44:52.810
23.0, 91.83324341196567, 29.322685602586716, 14.675367426127195, 44.53285872237757, 0.0, 0.0, 1.008000047877431, 0.0, 0.0, 0.0, 0.0, 0.0, 1.7411858928105195E9, 0.0, 2025-03-05 14:44:52.810
24.0, -123.91784513182938, -164.6883644987829, 12.251912254840136, -122.35269700037315, 0.0, 0.0, 1.008000047877431, 0.0, 0.0, 0.0, 0.0, 0.0, 1.7411858928109612E9, 0.0, 2025-03-05 14:44:52.810
24.0, -189.06690235994756, -215.50986499665305, 12.85403614770621, -161.52066923631355, 0.0, 0.0, 1.008000047877431, 0.0, 0.0, 0.0, 0.0, 0.0, 1.7411858928110154E9, 0.0, 2025-03-05 14:44:52.811
25.0, 32.63062711339444, -12.425817602779716, 9.68260098528117, 4.340153898578137, 0.0, 0.0, 1.008000047877431, 0.0, 0.0, 0.0, 0.0, 0.0, 1.7411858928115795E9, 0.0, 2025-03-05 14:44:52.811
25.0, 83.80741810705513, 17.710296240169555, 16.175067308358848, 47.23306649038568, 0.0, 0.0, 1.008000047877431, 0.0, 0.0, 0.0, 0.0, 0.0, 1.7411858928116848E9, 0.0, 2025-03-05 14:44:52.811
26.0, -120.08818757720292, -169.9541436363943, 11.926540958695114, -122.5209924983792, 0.0, 0.0, 1.008000047877431, 0.0, 0.0, 0.0, 0.0, 0.0, 1.7411858928123252E9, 0.0, 2025-03-05 14:44:52.812
26.0, -181.94613284431398, -216.32142328703776, 8.523231999017298, -166.16562498128042, 0.0, 0.0, 1.008000047877431, 0.0, 0.0, 0.0, 0.0, 0.0, 1.7411858928123765E9, 0.0, 2025-03-05 14:44:52.812
27.0, 29.706025348044932, -12.70257019950077, 13.774051536805928, 5.338707186747342, 0.0, 0.0, 1.008000047877431, 0.0, 0.0, 0.0, 0.0, 0.0, 1.7411858928405423E9, 0.0, 2025-03-05 14:44:52.840
27.0, 89.48084633983672, 25.653843746054918, 14.49585222825408, 47.2629856900312, 0.0, 0.0, 1.008000047877431, 0.0, 0.0, 0.0, 0.0, 0.0, 1.741185892840662E9, 0.0, 2025-03-05 14:44:52.840
28.0, -125.94487090781331, -179.83121941937134, 9.398368588648736, -132.88799517555162, 0.0, 0.0, 1.008000047877431, 0.0, 0.0, 0.0, 0.0, 0.0, 1.7411858928408816E9, 0.0, 2025-03-05 14:44:52.840
28.0, -186.89028058573604, -214.642208206933, 10.400661776773632, -173.12931869877502, 0.0, 0.0, 1.008000047877431, 0.0, 0.0, 0.0, 0.0, 0.0, 1.741185892840929E9, 0.0, 2025-03-05 14:44:52.840
29.0, 33.655359701253474, -7.7883416577242315, 7.214267014525831, 12.579153500963002, 0.0, 0.0, 1.008000047877431, 0.0, 0.0, 0.0, 0.0, 0.0, 1.7411858928708336E9, 0.0, 2025-03-05 14:44:52.870
29.0, 95.01589827425778, 28.873897607903928, 11.533851463347673, 45.80442470731214, 0.0, 0.0, 1.008000047877431, 0.0, 0.0, 0.0, 0.0, 0.0, 1.7411858928709085E9, 0.0, 2025-03-05 14:44:52.870
30.0, -121.54674855992198, -169.8382067377679, 10.628795674070716, -128.25051923049614, 0.0, 0.0, 0.9920000471174717, 0.0, 0.0, 0.0, 0.0, 0.0, 1.7411858928711295E9, 0.0, 2025-03-05 14:44:52.871
30.0, -187.1969523821026, -215.06855680188164, 9.66016158554703, -170.4739897302352, 0.0, 0.0, 0.9920000471174717, 0.0, 0.0, 0.0, 0.0, 0.0, 1.7411858928711767E9, 0.0, 2025-03-05 14:44:52.871
31.0, 37.87396685127169, -6.355959974694997, 11.563770662993193, 22.115898387972265, 0.0, 0.0, 0.9920000471174717, 0.0, 0.0, 0.0, 0.0, 0.0, 1.7411858928715255E9, 0.0, 2025-03-05 14:44:52.871
31.0, 94.58954967930913, 23.4734820718877, 14.47341282851994, 51.2272796430625, 0.0, 0.0, 0.9920000471174717, 0.0, 0.0, 0.0, 0.0, 0.0, 1.7411858928720117E9, 0.0, 2025-03-05 14:44:52.872
32.0, -125.15575201716274, -180.67269690940157, 16.54531740397215, -130.84974969970062, 0.0, 0.0, 0.9920000471174717, 0.0, 0.0, 0.0, 0.0, 0.0, 1.7411858928725784E9, 0.0, 2025-03-05 14:44:52.872
32.0, -174.35413593426347, -207.06143099674955, 17.35687569435686, -162.88947262009606, 0.0, 0.0, 0.9920000471174717, 0.0, 0.0, 0.0, 0.0, 0.0, 1.741185892872772E9, 0.0, 2025-03-05 14:44:52.872
33.0, 38.53966904338449, -7.519068860914558, 10.613836074247956, 10.488549425732344, 0.0, 0.0, 0.9920000471174717, 0.0, 0.0, 0.0, 0.0, 0.0, 1.741185892900482E9, 0.0, 2025-03-05 14:44:52.900
33.0, 87.33414376527071, 21.349218897055835, 11.204740267246962, 47.19940739078447, 0.0, 0.0, 0.9920000471174717, 0.0, 0.0, 0.0, 0.0, 0.0, 1.7411858929005616E9, 0.0, 2025-03-05 14:44:52.900
34.0, -132.38871853146702, -180.76245450833812, 8.186641003005207, -127.44644074002281, 0.0, 0.0, 0.9920000471174717, 0.0, 0.0, 0.0, 0.0, 0.0, 1.7411858929008455E9, 0.0, 2025-03-05 14:44:52.900
34.0, -176.99824520293623, -204.62301622563973, 12.386548653244972, -161.2102575399913, 0.0, 0.0, 0.9920000471174717, 0.0, 0.0, 0.0, 0.0, 0.0, 1.7411858929010043E9, 0.0, 2025-03-05 14:44:52.901
35.0, 36.815575163811445, -12.014428607653826, 9.847156583331525, 15.264401669148356, 0.0, 0.0, 0.9920000471174717, 0.0, 0.0, 0.0, 0.0, 0.0, 1.741185892930741E9, 0.0, 2025-03-05 14:44:52.930
35.0, 87.03121186885983, 23.638037669938058, 10.905548270791769, 49.28253166610375, 0.0, 0.0, 0.9920000471174717, 0.0, 0.0, 0.0, 0.0, 0.0, 1.7411858929308798E9, 0.0, 2025-03-05 14:44:52.930
36.0, -136.94765657745302, -184.96610205853358, 10.43806077633053, -133.27694477094337, 0.0, 0.0, 0.9920000471174717, 0.0, 0.0, 0.0, 0.0, 0.0, 1.7411858929311936E9, 0.0, 2025-03-05 14:44:52.931
36.0, -182.25280464068055, -208.43397428048775, 15.348549418151379, -157.84434757987037, 0.0, 0.0, 0.9920000471174717, 0.0, 0.0, 0.0, 0.0, 0.0, 1.741185892931259E9, 0.0, 2025-03-05 14:44:52.931
37.0, 40.12164672464132, -4.0447018020786345, 7.049711416475475, 15.436437067110091, 0.0, 0.0, 0.9920000471174717, 0.0, 0.0, 0.0, 0.0, 0.0, 1.7411858929318569E9, 0.0, 2025-03-05 14:44:52.931
37.0, 86.67966127302498, 22.998514777515084, 7.831350507214665, 43.38844933593646, 0.0, 0.0, 0.9920000471174717, 0.0, 0.0, 0.0, 0.0, 0.0, 1.7411858929319243E9, 0.0, 2025-03-05 14:44:52.931
38.0, -132.19424373377115, -180.8409924074076, 12.88021544739604, -129.33135031769052, 0.0, 0.0, 0.9920000471174717, 0.0, 0.0, 0.0, 0.0, 0.0, 1.7411858929321988E9, 0.0, 2025-03-05 14:44:52.932
38.0, -174.2643783353269, -200.64376267278567, 11.986379357986152, -158.56240837136284, 0.0, 0.0, 0.9920000471174717, 0.0, 0.0, 0.0, 0.0, 0.0, 1.741185892932246E9, 0.0, 2025-03-05 14:44:52.932
39.0, 38.793982240371406, -1.1201000367291272, 9.398368588648736, 18.922023825813085, 0.0, 0.0, 0.9920000471174717, 0.0, 0.0, 0.0, 0.0, 0.0, 1.741185892960536E9, 0.0, 2025-03-05 14:44:52.960
39.0, 79.64490945637226, 21.95882258983329, 13.134528644382954, 35.5533589287661, 0.0, 0.0, 0.9920000471174717, 0.0, 0.0, 0.0, 0.0, 0.0, 1.7411858929605927E9, 0.0, 2025-03-05 14:44:52.960
40.0, -131.9474103366956, -174.4719427828677, 16.014251610264182, -134.24183895951137, 0.0, 0.0, 0.9920000471174717, 0.0, 0.0, 0.0, 0.0, 0.0, 1.7411858929607337E9, 0.0, 2025-03-05 14:44:52.960
40.0, -177.7873640935868, -200.46424747491255, 7.360123112797737, -165.67943798704073, 0.0, 0.0, 0.9920000471174717, 0.0, 0.0, 0.0, 0.0, 0.0, 1.74118589296077E9, 0.0, 2025-03-05 14:44:52.960
41.0, 43.229503587819636, -1.531489031855017, 10.131388979963958, 18.634051529224962, 0.0, 0.0, 0.9920000471174717, 0.0, 0.0, 0.0, 0.0, 0.0, 1.7411858929910269E9, 0.0, 2025-03-05 14:44:52.991
41.0, 79.85808375384659, 21.304340097587556, 10.243585978634655, 43.71756053203717, 0.0, 0.0, 0.9920000471174717, 0.0, 0.0, 0.0, 0.0, 0.0, 1.7411858929911005E9, 0.0, 2025-03-05 14:44:52.991
42.0, -131.93619063682854, -176.04270076425746, 9.173974591307342, -135.61064234329388, 0.0, 0.0, 0.9920000471174717, 0.0, 0.0, 0.0, 0.0, 0.0, 1.7411858929913108E9, 0.0, 2025-03-05 14:44:52.991
42.0, -183.21769882924855, -201.16360876662657, 16.16010770853609, -168.1776911574416, 0.0, 0.0, 0.9920000471174717, 0.0, 0.0, 0.0, 0.0, 0.0, 1.7411858929913845E9, 0.0, 2025-03-05 14:44:52.991
43.0, 44.23553667590022, 1.3370142341591418, 15.72253941372037, 18.488195430953056, 0.0, 0.0, 0.9920000471174717, 0.0, 0.0, 0.0, 0.0, 0.0, 1.741185892991504E9, 0.0, 2025-03-05 14:44:52.991
43.0, 76.63802989199758, 18.850965726654977, 10.606356274336576, 31.009380482602865, 0.0, 0.0, 0.9920000471174717, 0.0, 0.0, 0.0, 0.0, 0.0, 1.7411858929916108E9, 0.0, 2025-03-05 14:44:52.991
44.0, -141.7384684206918, -187.19882233208045, 15.587903015315533, -141.6804999713786, 0.0, 0.0, 0.9920000471174717, 0.0, 0.0, 0.0, 0.0, 0.0, 1.7411858929922185E9, 0.0, 2025-03-05 14:44:52.992
44.0, -178.59144258406013, -197.39378961129114, 14.529511327855289, -159.0523352655582, 0.0, 0.0, 0.9920000471174717, 0.0, 0.0, 0.0, 0.0, 0.0, 1.7411858929922667E9, 0.0, 2025-03-05 14:44:52.992
45.0, 48.469103425741196, 11.330026915762573, 10.363262777216733, 24.74878795677796, 0.0, 0.0, 0.9920000471174717, 0.0, 0.0, 0.0, 0.0, 0.0, 1.7411858930205E9, 0.0, 2025-03-05 14:44:53.020
45.0, 79.90296255331486, 13.951696784701198, 13.27290494274348, 28.051119617652148, 0.0, 0.0, 0.9920000471174717, 0.0, 0.0, 0.0, 0.0, 0.0, 1.7411858930206177E9, 0.0, 2025-03-05 14:44:53.020
46.0, -132.4298574309796, -175.09650607546791, 13.467379740439355, -133.59109636722133, 0.0, 0.0, 0.9920000471174717, 0.0, 0.0, 0.0, 0.0, 0.0, 1.7411858930208993E9, 0.0, 2025-03-05 14:44:53.020
46.0, -170.39732178114355, -191.16685618506745, 10.711073473095894, -151.34066155692562, 0.0, 0.0, 0.9920000471174717, 0.0, 0.0, 0.0, 0.0, 0.0, 1.7411858930209465E9, 0.0, 2025-03-05 14:44:53.020
47.0, 49.03756821900606, 4.198037700261921, 9.996752581559122, 17.657937640789896, 0.0, 0.0, 0.9920000471174717, 0.0, 0.0, 0.0, 0.0, 0.0, 1.7411858930505402E9, 0.0, 2025-03-05 14:44:53.050
47.0, 76.813805189915, 8.884132344741374, 9.506825687363744, 33.7395074502565, 0.0, 0.0, 0.9920000471174717, 0.0, 0.0, 0.0, 0.0, 0.0, 1.7411858930506396E9, 0.0, 2025-03-05 14:44:53.050
48.0, -147.63629065081477, -195.60985733242705, 9.566664086654782, -152.6458866414614, 0.0, 0.0, 0.9920000471174717, 0.0, 0.0, 0.0, 0.0, 0.0, 1.7411858930509675E9, 0.0, 2025-03-05 14:44:53.050
48.0, -169.06217749696225, -201.23840676574036, 16.612635603174567, -162.41076542576775, 0.0, 0.0, 0.9920000471174717, 0.0, 0.0, 0.0, 0.0, 0.0, 1.741185893051016E9, 0.0, 2025-03-05 14:44:53.051
49.0, 49.99872250761837, 2.331827622372657, 9.903255082666874, 20.986448601353914, 0.0, 0.0, 0.9920000471174717, 0.0, 0.0, 0.0, 0.0, 0.0, 1.7411858930515163E9, 0.0, 2025-03-05 14:44:53.051
49.0, 71.61908415146172, 10.881238921079785, 10.643755273893476, 32.82323196111247, 0.0, 0.0, 0.9920000471174717, 0.0, 0.0, 0.0, 0.0, 0.0, 1.741185893051562E9, 0.0, 2025-03-05 14:44:53.051
50.0, -148.3992302417755, -186.7724737371318, 8.994459393434227, -142.88100785715505, 0.0, 0.0, 0.9920000471174717, 0.0, 0.0, 0.0, 0.0, 0.0, 1.741185893052291E9, 0.0, 2025-03-05 14:44:53.052
50.0, -180.00138486735523, -197.86875690566376, 13.27290494274348, -158.18841837579384, 0.0, 0.0, 0.9920000471174717, 0.0, 0.0, 0.0, 0.0, 0.0, 1.7411858930523736E9, 0.0, 2025-03-05 14:44:53.052
51.0, 33.3860869044438, -2.3168680225498974, 11.27205846644938, 22.3627317850478, 0.0, 0.0, 0.9920000471174717, 0.0, 0.0, 0.0, 0.0, 0.0, 1.7411858930804124E9, 0.0, 2025-03-05 14:44:53.080
51.0, 65.11539812851697, 9.000069243367761, 17.25963829550892, 33.67966905096546, 0.0, 0.0, 0.9920000471174717, 0.0, 0.0, 0.0, 0.0, 0.0, 1.7411858930805E9, 0.0, 2025-03-05 14:44:53.080
52.0, -148.5563060399145, -193.19014206109568, 15.789857612922788, -142.85856845742092, 0.0, 0.0, 0.9920000471174717, 0.0, 0.0, 0.0, 0.0, 0.0, 1.7411858930806956E9, 0.0, 2025-03-05 14:44:53.080
52.0, -172.57394355535507, -197.80143870646134, 17.76452478952706, -155.1665792115964, 0.0, 0.0, 0.9920000471174717, 0.0, 0.0, 0.0, 0.0, 0.0, 1.7411858930807877E9, 0.0, 2025-03-05 14:44:53.080
53.0, 55.88158513791859, 14.875452073756605, 7.756552508100867, 37.57664480479434, 0.0, 0.0, 0.9920000471174717, 0.0, 0.0, 0.0, 0.0, 0.0, 1.7411858931110444E9, 0.0, 2025-03-05 14:44:53.111
53.0, 72.68869553878903, 10.428711026441306, 12.210773355327547, 35.052212334703654, 0.0, 0.0, 0.9920000471174717, 0.0, 0.0, 0.0, 0.0, 0.0, 1.7411858931111443E9, 0.0, 2025-03-05 14:44:53.111
54.0, -150.0298266224563, -189.50634060474113, 11.182300867512822, -145.37552112760022, 0.0, 0.0, 0.9920000471174717, 0.0, 0.0, 0.0, 0.0, 0.0, 1.7411858931112356E9, 0.0, 2025-03-05 14:44:53.111
54.0, -164.34616365283728, -185.82627904834226, 9.383408988825977, -145.4203999270685, 0.0, 0.0, 0.9920000471174717, 0.0, 0.0, 0.0, 0.0, 0.0, 1.7411858931114247E9, 0.0, 2025-03-05 14:44:53.111
55.0, 51.06833389494568, 7.283455163706094, 4.947887641377747, 27.99876101827249, 0.0, 0.0, 0.9920000471174717, 0.0, 0.0, 0.0, 0.0, 0.0, 1.7411858931115065E9, 0.0, 2025-03-05 14:44:53.111
55.0, 66.67119651008397, 10.009842231404036, 8.171681403182447, 25.436929548624903, 0.0, 0.0, 0.9920000471174717, 0.0, 0.0, 0.0, 0.0, 0.0, 1.7411858931115808E9, 0.0, 2025-03-05 14:44:53.111
56.0, -146.45448226481676, -189.2595072076656, 13.897468235343695, -150.11397437145934, 0.0, 0.0, 0.9920000471174717, 0.0, 0.0, 0.0, 0.0, 0.0, 1.741185893112356E9, 0.0, 2025-03-05 14:44:53.112
56.0, -161.13358959089965, -185.63554415060207, 12.599722950719297, -148.54695629002526, 0.0, 0.0, 0.9920000471174717, 0.0, 0.0, 0.0, 0.0, 0.0, 1.7411858931124384E9, 0.0, 2025-03-05 14:44:53.112
57.0, 56.28923423308879, 11.004655619617552, 10.580176974646747, 36.52573291724548, 0.0, 0.0, 0.9920000471174717, 0.0, 0.0, 0.0, 0.0, 0.0, 1.741185893140515E9, 0.0, 2025-03-05 14:44:53.140
57.0, 63.96350894216448, 4.141939200926572, 14.87732202373445, 27.59859172301367, 0.0, 0.0, 0.9920000471174717, 0.0, 0.0, 0.0, 0.0, 0.0, 1.7411858931406107E9, 0.0, 2025-03-05 14:44:53.140
58.0, -154.19607517309487, -196.21198122529313, 13.201846843585372, -144.24233144102618, 0.0, 0.0, 0.9920000471174717, 0.0, 0.0, 0.0, 0.0, 0.0, 1.741185893140778E9, 0.0, 2025-03-05 14:44:53.140
58.0, -162.4126353757456, -184.26300086686388, 12.91387454699725, -136.8934280280955, 0.0, 0.0, 0.9920000471174717, 0.0, 0.0, 0.0, 0.0, 0.0, 1.7411858931408246E9, 0.0, 2025-03-05 14:44:53.140
59.0, 58.01332811266184, 11.262708716560155, 16.373282006010413, 30.616690987255424, 0.0, 0.0, 0.9920000471174717, 0.0, 0.0, 0.0, 0.0, 0.0, 1.7411858931707551E9, 0.0, 2025-03-05 14:44:53.170
59.0, 63.424963348545134, 1.7521431292407215, 14.043324333615601, 26.02409384166822, 0.0, 0.0, 0.9920000471174717, 0.0, 0.0, 0.0, 0.0, 0.0, 1.7411858931708276E9, 0.0, 2025-03-05 14:44:53.170
60.0, -152.04937259852886, -193.57909165648744, 12.981192746199667, -148.1654864945449, 0.0, 0.0, 0.9920000471174717, 0.0, 0.0, 0.0, 0.0, 0.0, 1.7411858931710472E9, 0.0, 2025-03-05 14:44:53.171
60.0, -154.93657536432147, -186.59669843921438, 13.519738339819014, -137.90694091608748, 0.0, 0.0, 0.9920000471174717, 0.0, 0.0, 0.0, 0.0, 0.0, 1.741185893171097E9, 0.0, 2025-03-05 14:44:53.171
61.0, 52.545594377443194, -1.2809157348237932, 12.805417448282242, 22.467448983807117, 0.0, 0.0, 0.9920000471174717, 0.0, 0.0, 0.0, 0.0, 0.0, 1.7411858931714385E9, 0.0, 2025-03-05 14:44:53.171
61.0, 71.09549815766513, 2.975090414751321, 11.384255465120077, 27.90900341933593, 0.0, 0.0, 0.9920000471174717, 0.0, 0.0, 0.0, 0.0, 0.0, 1.7411858931715348E9, 0.0, 2025-03-05 14:44:53.171
62.0, -147.0341667579487, -190.9948207871057, 13.085909944958985, -143.677606547717, 0.0, 0.0, 0.9920000471174717, 0.0, 0.0, 0.0, 0.0, 0.0, 1.7411858931722164E9, 0.0, 2025-03-05 14:44:53.172
62.0, -160.90919559355825, -187.0305268340744, 11.709626761265099, -141.87871466903016, 0.0, 0.0, 0.9920000471174717, 0.0, 0.0, 0.0, 0.0, 0.0, 1.7411858931722922E9, 0.0, 2025-03-05 14:44:53.172
63.0, 60.6574373813346, 7.100200065877289, 9.439507488161325, 30.41473638964817, 0.0, 0.0, 0.9920000471174717, 0.0, 0.0, 0.0, 0.0, 0.0, 1.741185893201285E9, 0.0, 2025-03-05 14:44:53.201
63.0, 51.79761438630521, -8.020215454977006, 13.007372045889497, 19.18007692275569, 0.0, 0.0, 0.9920000471174717, 0.0, 0.0, 0.0, 0.0, 0.0, 1.741185893201374E9, 0.0, 2025-03-05 14:44:53.201
64.0, -156.54847224522382, -194.22983424877748, 14.996998822316527, -147.02855690801516, 0.0, 0.0, 0.9920000471174717, 0.0, 0.0, 0.0, 0.0, 0.0, 1.741185893201456E9, 0.0, 2025-03-05 14:44:53.201
64.0, -160.43796819914132, -185.22415515547618, 16.616375503130257, -136.32870313478634, 0.0, 0.0, 0.9920000471174717, 0.0, 0.0, 0.0, 0.0, 0.0, 1.7411858932015111E9, 0.0, 2025-03-05 14:44:53.201
65.0, 47.99413613136858, 12.059307407122105, 12.85029624775052, 29.2179684038274, 0.0, 0.0, 0.9920000471174717, 0.0, 0.0, 0.0, 0.0, 0.0, 1.7411858932304428E9, 0.0, 2025-03-05 14:44:53.230
65.0, 57.28030772134662, 3.255582911428064, 9.458206987939775, 24.890904155094177, 0.0, 0.0, 0.9920000471174717, 0.0, 0.0, 0.0, 0.0, 0.0, 1.7411858932305331E9, 0.0, 2025-03-05 14:44:53.230
66.0, -172.64874155446887, -212.61518243094906, 9.802277783863246, -169.1313656461425, 0.0, 0.0, 0.9920000471174717, 0.0, 0.0, 0.0, 0.0, 0.0, 1.7411858932308085E9, 0.0, 2025-03-05 14:44:53.230
66.0, -169.0846168966964, -208.4115348807536, 16.175067308358848, -147.4212464033626, 0.0, 0.0, 0.9920000471174717, 0.0, 0.0, 0.0, 0.0, 0.0, 1.7411858932308815E9, 0.0, 2025-03-05 14:44:53.230
67.0, -408.34658651193604, -8.887872244697064, 17.37183529417962, 38.31340509606525, 0.0, 0.0, 0.9920000471174717, 0.0, 0.0, 0.0, 0.0, 0.0, 1.741185893231528E9, 0.0, 2025-03-05 14:44:53.231
67.0, -395.5037700640969, -42.296398548875004, 13.755352037027478, 29.057152705732733, 0.0, 0.0, 0.9920000471174717, 0.0, 0.0, 0.0, 0.0, 0.0, 1.741185893231618E9, 0.0, 2025-03-05 14:44:53.231
68.0, -607.2606454552151, -272.0421927268617, 13.160707944072783, -157.48531718412414, 0.0, 0.0, 0.9920000471174717, 0.0, 0.0, 0.0, 0.0, 0.0, 1.7411858932322123E9, 0.0, 2025-03-05 14:44:53.232
68.0, -594.4066093075089, -264.12482452066615, 15.29245091881603, -150.11397437145934, 0.0, 0.0, 0.9920000471174717, 0.0, 0.0, 0.0, 0.0, 0.0, 1.7411858932322917E9, 0.0, 2025-03-05 14:44:53.232
69.0, -365.6668482176028, -74.62409376585856, 11.526371663436294, 29.65179679868743, 0.0, 0.0, 0.9920000471174717, 0.0, 0.0, 0.0, 0.0, 0.0, 1.7411858932610073E9, 0.0, 2025-03-05 14:44:53.261
69.0, -358.28802560502663, -96.12103871116415, 13.68803383782506, 12.552974201273173, 0.0, 0.0, 0.9920000471174717, 0.0, 0.0, 0.0, 0.0, 0.0, 1.741185893261068E9, 0.0, 2025-03-05 14:44:53.261
70.0, -582.887717443984, -308.0836085998453, 12.139715256169438, -163.74216980999336, 0.0, 0.0, 0.9920000471174717, 0.0, 0.0, 0.0, 0.0, 0.0, 1.7411858932612224E9, 0.0, 2025-03-05 14:44:53.261
70.0, -564.592126860749, -269.0689722620882, 9.218853390775621, -142.66783355968073, 0.0, 0.0, 0.9920000471174717, 0.0, 0.0, 0.0, 0.0, 0.0, 1.7411858932613163E9, 0.0, 2025-03-05 14:44:53.261
71.0, -355.61399713670835, -68.02691024402156, 11.462793364189565, 23.50340127153322, 0.0, 0.0, 0.9920000471174717, 0.0, 0.0, 0.0, 0.0, 0.0, 1.7411858932910693E9, 0.0, 2025-03-05 14:44:53.291
71.0, -375.21107290452346, -99.04190057655796, 9.899515182711184, 7.02540206676349, 0.0, 0.0, 0.9920000471174717, 0.0, 0.0, 0.0, 0.0, 0.0, 1.741185893291136E9, 0.0, 2025-03-05 14:44:53.291
72.0, -599.952880941797, -299.4481796021573, 13.65063483826816, -173.37989199580625, -0.01600000075995922, 0.0, 0.9920000471174717, 0.0, 0.0, 0.0, 0.0, 0.0, 1.7411858932913616E9, 0.0, 2025-03-05 14:44:53.291
72.0, -592.6264169286005, -269.9254093519412, 11.384255465120077, -153.48362423153594, -0.01600000075995922, 0.0, 0.9920000471174717, 0.0, 0.0, 0.0, 0.0, 0.0, 1.74118589329146E9, 0.0, 2025-03-05 14:44:53.291
73.0, -370.85034955618903, -65.09482867876068, 10.782131572254002, 23.851211967412382, -0.01600000075995922, 0.0, 0.9920000471174717, 0.0, 0.0, 0.0, 0.0, 0.0, 1.7411858932915535E9, 0.0, 2025-03-05 14:44:53.291
73.0, -376.5723964883946, -81.3521737861447, 8.751365896314383, 10.036021531093866, -0.01600000075995922, 0.0, 0.9920000471174717, 0.0, 0.0, 0.0, 0.0, 0.0, 1.7411858932915924E9, 0.0, 2025-03-05 14:44:53.291
74.0, -602.6867478094064, -279.3761365399696, 12.214513255283237, -165.2867484916933, -0.01600000075995922, 0.0, 0.9920000471174717, 0.0, 0.0, 0.0, 0.0, 0.0, 1.741185893292284E9, 0.0, 2025-03-05 14:44:53.292
74.0, -580.6175981708802, -244.22481685644016, 13.055990745313466, -142.09562886646017, -0.01600000075995922, 0.0, 0.9920000471174717, 0.0, 0.0, 0.0, 0.0, 0.0, 1.7411858932923543E9, 0.0, 2025-03-05 14:44:53.292
75.0, -367.4993991958909, -46.18215460283682, 9.476906487718225, 36.34247781941667, -0.01600000075995922, 0.0, 0.9920000471174717, 0.0, 0.0, 0.0, 0.0, 0.0, 1.741185893320377E9, 0.0, 2025-03-05 14:44:53.320
75.0, -387.70981855643913, -80.36484019784257, 12.379068853333592, 8.158591753337532, -0.01600000075995922, 0.0, 0.9920000471174717, 0.0, 0.0, 0.0, 0.0, 0.0, 1.741185893320459E9, 0.0, 2025-03-05 14:44:53.320
76.0, -606.3780290656723, -282.8542434987612, 14.368695629760623, -166.25164268026128, -0.01600000075995922, 0.0, 0.9920000471174717, 0.0, 0.0, 0.0, 0.0, 0.0, 1.7411858933209517E9, 0.0, 2025-03-05 14:44:53.320
76.0, -587.1250240937807, -243.36837976658717, 6.3802693244069815, -142.2676642644219, -0.01600000075995922, 0.0, 0.9920000471174717, 0.0, 0.0, 0.0, 0.0, 0.0, 1.7411858933209972E9, 0.0, 2025-03-05 14:44:53.320
77.0, -368.99161927821115, -42.45721424696967, 11.814343960024416, 35.19806843297556, -0.01600000075995922, 0.0, 0.9920000471174717, 0.0, 0.0, 0.0, 0.0, 0.0, 1.7411858933503923E9, 0.0, 2025-03-05 14:44:53.350
77.0, -389.71066503273323, -78.83896101592109, 13.059730645269156, 9.123485941905528, -0.01600000075995922, 0.0, 0.9920000471174717, 0.0, 0.0, 0.0, 0.0, 0.0, 1.7411858933504553E9, 0.0, 2025-03-05 14:44:53.350
78.0, -607.8066708487459, -274.1926352013834, 13.115829144604504, -166.71165037481114, -0.01600000075995922, 0.0, 0.9920000471174717, 0.0, 0.0, 0.0, 0.0, 0.0, 1.741185893380545E9, 0.0, 2025-03-05 14:44:53.380
78.0, -578.6840698937885, -236.0194763536565, 12.207033455371857, -134.61956885503605, -0.01600000075995922, 0.0, 0.9920000471174717, 0.0, 0.0, 0.0, 0.0, 0.0, 1.7411858933806498E9, 0.0, 2025-03-05 14:44:53.380
79.0, -365.94734071427956, -42.13184295082465, 10.84570987150073, 36.05450552282855, -0.01600000075995922, 0.0, 0.9920000471174717, 0.0, 0.0, 0.0, 0.0, 0.0, 1.7411858933807387E9, 0.0, 2025-03-05 14:44:53.380
79.0, -386.4532121713273, -76.15371284773573, 12.0424778573215, 5.065694489981979, -0.01600000075995922, 0.0, 0.9920000471174717, 0.0, 0.0, 0.0, 0.0, 0.0, 1.741185893380865E9, 0.0, 2025-03-05 14:44:53.380
80.0, -609.2914111311547, -273.8897033049725, 14.50333202816546, -164.36299320263788, -0.01600000075995922, 0.0, 0.9920000471174717, 0.0, 0.0, 0.0, 0.0, 0.0, 1.741185893381455E9, 0.0, 2025-03-05 14:44:53.381
80.0, -590.6517497519962, -232.81438209163025, 10.909288170747459, -136.43342033354566, -0.01600000075995922, 0.0, 0.9920000471174717, 0.0, 0.0, 0.0, 0.0, 0.0, 1.7411858933815136E9, 0.0, 2025-03-05 14:44:53.381
81.0, -368.2623387868516, -36.7389072147198, 8.369896100834012, 44.49545972282067, -0.01600000075995922, 0.0, 0.9920000471174717, 0.0, 0.0, 0.0, 0.0, 0.0, 1.7411858933822627E9, 0.0, 2025-03-05 14:44:53.382
81.0, -397.22786394366995, -75.21125805890188, 13.160707944072783, 8.599899948108941, -0.01600000075995922, 0.0, 0.9920000471174717, 0.0, 0.0, 0.0, 0.0, 0.0, 1.7411858933823297E9, 0.0, 2025-03-05 14:44:53.382
82.0, -613.7157127787359, -273.79246590612456, 10.49415927566588, -164.8342205970548, 0.0, 0.0, 0.9920000471174717, 0.0, 0.0, 0.0, 0.0, 0.0, 1.7411858933828645E9, 0.0, 2025-03-05 14:44:53.382
82.0, -586.1975289047696, -232.47779109561816, 11.328156965784729, -127.73067313665524, 0.0, 0.0, 0.9920000471174717, 0.0, 0.0, 0.0, 0.0, 0.0, 1.741185893382929E9, 0.0, 2025-03-05 14:44:53.382
83.0, -373.1653476287611, -31.20011538034305, 11.399215064942837, 39.461554382462054, 0.0, 0.0, 0.9920000471174717, 0.0, 0.0, 0.0, 0.0, 0.0, 1.741185893383734E9, 0.0, 2025-03-05 14:44:53.383
83.0, -394.04520908137783, -74.7213311647065, 12.147195056080818, 8.132412453647703, 0.0, 0.0, 0.9920000471174717, 0.0, 0.0, 0.0, 0.0, 0.0, 1.7411858933838303E9, 0.0, 2025-03-05 14:44:53.383
84.0, -617.1339813382365, -282.2558595058508, 19.72797226626426, -170.49268923001364, 0.0, 0.0, 0.9920000471174717, 0.0, 0.0, 0.0, 0.0, 0.0, 1.741185893410462E9, 0.0, 2025-03-05 14:44:53.410
84.0, -587.3307185913436, -225.0466098836623, 5.983839929103851, -123.16425529075786, 0.0, 0.0, 0.9920000471174717, 0.0, 0.0, 0.0, 0.0, 0.0, 1.7411858934105597E9, 0.0, 2025-03-05 14:44:53.410
85.0, -369.9415538669564, -37.36721040727571, 9.428287788294256, 45.69970750855282, 0.0, 0.0, 0.9920000471174717, 0.0, 0.0, 0.0, 0.0, 0.0, 1.7411858934107308E9, 0.0, 2025-03-05 14:44:53.410
85.0, -400.1749051087536, -68.80480943480507, 10.120169280096889, 21.704509392846376, 0.0, 0.0, 0.9920000471174717, 0.0, 0.0, 0.0, 0.0, 0.0, 1.7411858934108632E9, 0.0, 2025-03-05 14:44:53.410
86.0, -626.0237235329114, -269.02035356266424, 12.147195056080818, -158.05004207743332, 0.0, 0.0, 0.9920000471174717, 0.0, 0.0, 0.0, 0.0, 0.0, 1.741185893440407E9, 0.0, 2025-03-05 14:44:53.440
86.0, -596.8525038785301, -219.85562874516472, 14.271458230912685, -127.61473623802885, 0.0, 0.0, 0.9920000471174717, 0.0, 0.0, 0.0, 0.0, 0.0, 1.741185893440467E9, 0.0, 2025-03-05 14:44:53.440
87.0, -379.7176523511298, -27.10866482881829, 11.365555965341628, 53.64325501443818, 0.0, 0.0, 0.9920000471174717, 0.0, 0.0, 0.0, 0.0, 0.0, 1.741185893440846E9, 0.0, 2025-03-05 14:44:53.440
87.0, -402.9835699754767, -61.179153425153345, 11.69092726148665, 19.206256222445518, 0.0, 0.0, 0.9920000471174717, 0.0, 0.0, 0.0, 0.0, 0.0, 1.7411858934408891E9, 0.0, 2025-03-05 14:44:53.440
88.0, -634.8835465279408, -264.34547861805186, 16.91930739954114, -165.8701728847809, 0.0, 0.0, 0.9920000471174717, 0.0, 0.0, 0.0, 0.0, 0.0, 1.7411858934414163E9, 0.0, 2025-03-05 14:44:53.441
88.0, -605.6150894747116, -216.91232748003677, 14.806263924576342, -135.57324334373698, 0.0, 0.0, 0.9920000471174717, 0.0, 0.0, 0.0, 0.0, 0.0, 1.7411858934414623E9, 0.0, 2025-03-05 14:44:53.441
89.0, -369.76577856903896, -4.927318191621453, 11.28327816631645, 54.50343200424686, 0.0, 0.0, 0.9920000471174717, 0.0, 0.0, 0.0, 0.0, 0.0, 1.7411858934706695E9, 0.0, 2025-03-05 14:44:53.470
89.0, -415.4449166278355, -71.32550200494006, 13.25046554300934, 1.6175067308358848, 0.0, 0.0, 0.9920000471174717, 0.0, 0.0, 0.0, 0.0, 0.0, 1.7411858934707282E9, 0.0, 2025-03-05 14:44:53.470
90.0, -643.9827231201343, -273.9271023045294, 14.810003824532032, -165.724316786509, 0.0, 0.0, 1.008000047877431, 0.0, 0.0, 0.0, 0.0, 0.0, 1.741185893470871E9, 0.0, 2025-03-05 14:44:53.470
