%OpenBCI Raw EXG Data
%Number of channels = 4
%Sample Rate = 200 Hz
%Board = OpenBCI_GUI$BoardGanglionNative
Sample Index, EXG Channel 0, EXG Channel 1, EXG Channel 2, EXG Channel 3, Accel Channel 0, Accel Channel 1, Accel Channel 2, Other, Other, Other, Other, Other, Timestamp, Marker Channel, Timestamp (Formatted)
0.0, 165.82529408531263, -123.60930338548496, 9.549834536854178, 1.084570987150073, 0.0, 0.0, 0.0, 0.0, 0.0, 0.0, 0.0, 0.0, 1.7400592335072455E9, 0.0, 2025-02-20 13:47:13.507
1.0, 232.479661045596, -89.79499793611467, 9.89390533277765, 71.56672555208206, 0.0, 0.0, 0.0, 0.0, 0.0, 0.0, 0.0, 0.0, 1.7400592335076249E9, 0.0, 2025-02-20 13:47:13.507
1.0, 472.6261170003563, -297.7988837216981, 7.915498256217688, 4.054051551967859, 0.0, 0.0, 0.0, 0.0, 0.0, 0.0, 0.0, 0.0, 1.7400592335077276E9, 0.0, 2025-02-20 13:47:13.507
2.0, 395.9039393593557, -318.58337772544473, 6.471896873321384, -73.78448622580618, -0.01600000075995922, 0.0, 0.0, 0.0, 0.0, 0.0, 0.0, 0.0, 1.74005923353644E9, 0.0, 2025-02-20 13:47:13.536
2.0, 153.81647532759234, -111.52194672869518, 12.586633300874382, -7.580777210183442, -0.01600000075995922, 0.0, 0.0, 0.0, 0.0, 0.0, 0.0, 0.0, 1.740059233536533E9, 0.0, 2025-02-20 13:47:13.536
3.0, 230.8528045648709, -88.69920724909753, 12.26126200472936, 75.49362050555646, -0.01600000075995922, 0.0, 0.0, 0.0, 0.0, 0.0, 0.0, 0.0, 1.740059233536608E9, 0.0, 2025-02-20 13:47:13.536
3.0, 474.79525897465646, -281.9604074093513, 9.310480939690024, 12.06865715701133, -0.01600000075995922, 0.0, 0.0, 0.0, 0.0, 0.0, 0.0, 0.0, 1.7400592335366676E9, 0.0, 2025-02-20 13:47:13.536
4.0, 397.347540742252, -330.4126812852919, 13.300954192411155, -71.35729115456343, -0.01600000075995922, 0.0, 0.0, 0.0, 0.0, 0.0, 0.0, 0.0, 1.7400592335373414E9, 0.0, 2025-02-20 13:47:13.537
4.0, 625.292573091574, -134.98981895064935, 11.131812218111008, 1.1743285860866308, -0.01600000075995922, 0.0, 0.0, 0.0, 0.0, 0.0, 0.0, 0.0, 1.7400592335374353E9, 0.0, 2025-02-20 13:47:13.537
5.0, 723.5341350776143, -87.24438616633415, 15.443916867021471, 70.54573286417872, -0.01600000075995922, 0.0, 0.0, 0.0, 0.0, 0.0, 0.0, 0.0, 1.7400592335382133E9, 0.0, 2025-02-20 13:47:13.538
5.0, 478.6024771295488, -271.8551977290772, 9.47877643769607, -1.7016544798389077, -0.01600000075995922, 0.0, 0.0, 0.0, 0.0, 0.0, 0.0, 0.0, 1.740059233538278E9, 0.0, 2025-02-20 13:47:13.538
6.0, 405.7735353424214, -300.38876444101334, 12.328580203931779, -77.9619544763118, -0.01600000075995922, 0.0, 0.0, 0.0, 0.0, 0.0, 0.0, 0.0, 1.7400592335664515E9, 0.0, 2025-02-20 13:47:13.566
6.0, 640.6635619094595, -108.99003445869312, 11.09441321855411, -0.9985532881692052, -0.01600000075995922, 0.0, 0.0, 0.0, 0.0, 0.0, 0.0, 0.0, 1.7400592335666742E9, 0.0, 2025-02-20 13:47:13.566
7.0, 732.2181827747263, -76.06956509873271, 14.957729872781783, 70.57565206382424, -0.01600000075995922, 0.0, 0.0, 0.0, 0.0, 0.0, 0.0, 0.0, 1.7400592335668988E9, 0.0, 2025-02-20 13:47:13.566
7.0, 959.5966202807613, -264.61475141486153, 13.11395919462666, -0.08601769898086786, -0.01600000075995922, 0.0, 0.0, 0.0, 0.0, 0.0, 0.0, 0.0, 1.7400592335669663E9, 0.0, 2025-02-20 13:47:13.566
8.0, 887.4483402855694, -302.6551438141614, 10.600746424403042, -68.31675249058753, -0.01600000075995922, 0.0, 0.0, 0.0, 0.0, 0.0, 0.0, 0.0, 1.7400592335965447E9, 0.0, 2025-02-20 13:47:13.596
8.0, 651.8907415764406, -127.98124643368647, 12.781108098570257, 4.1662485506385565, -0.01600000075995922, 0.0, 0.0, 0.0, 0.0, 0.0, 0.0, 0.0, 1.740059233596826E9, 0.0, 2025-02-20 13:47:13.596
9.0, 737.4129038131796, -82.34885712433606, 9.972443231847137, 74.2594535201788, -0.01600000075995922, 0.0, 0.0, 0.0, 0.0, 0.0, 0.0, 0.0, 1.740059233596989E9, 0.0, 2025-02-20 13:47:13.596
9.0, 956.6533190156333, -262.8495186357759, 13.86941898567602, 6.888895718380809, -0.01600000075995922, 0.0, 0.0, 0.0, 0.0, 0.0, 0.0, 0.0, 1.740059233597253E9, 0.0, 2025-02-20 13:47:13.597
10.0, 872.4289020635188, -313.8898032810539, 10.050981130916625, -62.74430155660957, -0.01600000075995922, 0.0, 0.5120000243186951, 0.0, 0.0, 0.0, 0.0, 0.0, 1.7400592335974257E9, 0.0, 2025-02-20 13:47:13.597
10.0, 1090.2313257330097, -131.4855326921679, 15.92262406134978, 1.0209926879033446, -0.01600000075995922, 0.0, 0.5120000243186951, 0.0, 0.0, 0.0, 0.0, 0.0, 1.7400592335974853E9, 0.0, 2025-02-20 13:47:13.597
11.0, 1212.498005034402, -87.54357816278934, 19.408210820052773, 77.13169668614864, -0.01600000075995922, 0.0, 0.5120000243186951, 0.0, 0.0, 0.0, 0.0, 0.0, 1.7400592335982232E9, 0.0, 2025-02-20 13:47:13.598
11.0, 1427.3141185892746, -261.7799072484486, 12.186464005615562, 6.286771825514734, -0.01600000075995922, 0.0, 0.5120000243186951, 0.0, 0.0, 0.0, 0.0, 0.0, 1.7400592335982945E9, 0.0, 2025-02-20 13:47:13.598
12.0, 1367.2195361512713, -309.64875673130155, 11.8760523092933, -75.16450930945575, 0.0, 0.0, 0.5120000243186951, 0.0, 0.0, 0.0, 0.0, 0.0, 1.7400592336265085E9, 0.0, 2025-02-20 13:47:13.626
12.0, 1601.511178725399, -129.57070391485468, 13.46550979046151, -1.488480182364583, 0.0, 0.0, 0.5120000243186951, 0.0, 0.0, 0.0, 0.0, 0.0, 1.7400592336267152E9, 0.0, 2025-02-20 13:47:13.626
13.0, 1687.5120481564663, -76.40989599470049, 14.609919176902622, 67.47153510060161, 0.0, 0.0, 0.5120000243186951, 0.0, 0.0, 0.0, 0.0, 0.0, 1.7400592336269314E9, 0.0, 2025-02-20 13:47:13.626
13.0, 1474.249863033183, -229.5718888300471, 13.49542899010703, -19.967325863428414, 0.0, 0.0, 0.5120000243186951, 0.0, 0.0, 0.0, 0.0, 0.0, 1.740059233627105E9, 0.0, 2025-02-20 13:47:13.627
14.0, 1394.3076315303333, -288.01343548763543, 5.521962284576148, -89.90345503482968, 0.0, 0.0, 0.5120000243186951, 0.0, 0.0, 0.0, 0.0, 0.0, 1.740059233656392E9, 0.0, 2025-02-20 13:47:13.656
14.0, 1626.1533795334399, -100.33964586118236, 15.664570964407176, -23.00038472749293, 0.0, 0.0, 0.5120000243186951, 0.0, 0.0, 0.0, 0.0, 0.0, 1.7400592336565633E9, 0.0, 2025-02-20 13:47:13.656
15.0, 1735.9325328827836, -30.315629040822387, 10.937337420415133, 46.27004225179553, 0.0, 0.0, 0.5120000243186951, 0.0, 0.0, 0.0, 0.0, 0.0, 1.740059233656752E9, 0.0, 2025-02-20 13:47:13.656
15.0, 1519.9963192911819, -188.15249682078138, 14.26210848102346, -33.31128890533, 0.0, 0.0, 0.5120000243186951, 0.0, 0.0, 0.0, 0.0, 0.0, 1.7400592336568167E9, 0.0, 2025-02-20 13:47:13.656
16.0, 1423.7705633812584, -249.1895340476185, 10.68676412338391, -101.89357429277152, 0.0, 0.0, 0.5120000243186951, 0.0, 0.0, 0.0, 0.0, 0.0, 1.7400592336573632E9, 0.0, 2025-02-20 13:47:13.657
16.0, 1638.790501483716, -71.62843390135095, 17.788834139239043, -28.819669058546424, 0.0, 0.0, 0.5120000243186951, 0.0, 0.0, 0.0, 0.0, 0.0, 1.7400592336574285E9, 0.0, 2025-02-20 13:47:13.657
17.0, 1768.5070614968427, -1.9372681770473719, 15.11854557087645, 29.156260054558516, 0.0, 0.0, 0.5120000243186951, 0.0, 0.0, 0.0, 0.0, 0.0, 1.7400592336582403E9, 0.0, 2025-02-20 13:47:13.658
17.0, 1529.2488317815587, -173.08443989930674, 9.254382440354675, -33.576821802183986, 0.0, 0.0, 0.5120000243186951, 0.0, 0.0, 0.0, 0.0, 0.0, 1.7400592336584144E9, 0.0, 2025-02-20 13:47:13.658
18.0, 1414.2188588944264, -254.12994188908488, 6.879545968491584, -83.88595600612462, 0.0, 0.0, 0.5120000243186951, 0.0, 0.0, 0.0, 0.0, 0.0, 1.7400592336862483E9, 0.0, 2025-02-20 13:47:13.686
18.0, 1604.0094318958, -107.52399367606267, 16.550927253905684, -7.479799911379814, 0.0, 0.0, 0.5120000243186951, 0.0, 0.0, 0.0, 0.0, 0.0, 1.740059233686452E9, 0.0, 2025-02-20 13:47:13.686
19.0, 1711.4773270725273, -51.15809149388224, 14.748295475263149, 60.593859082087874, 0.0, 0.0, 0.5120000243186951, 0.0, 0.0, 0.0, 0.0, 0.0, 1.7400592336868267E9, 0.0, 2025-02-20 13:47:13.686
19.0, 1952.2259069201536, -215.2368522998877, 10.451150426175445, -2.1167833749204874, 0.0, 0.0, 0.5120000243186951, 0.0, 0.0, 0.0, 0.0, 0.0, 1.7400592336869721E9, 0.0, 2025-02-20 13:47:13.686
20.0, 1807.916257279925, -297.2098494786769, 11.85735280951485, -63.29406685009599, 0.0, 0.0, 0.7520000357180834, 0.0, 0.0, 0.0, 0.0, 0.0, 1.74005923371636E9, 0.0, 2025-02-20 13:47:13.716
20.0, 2048.5806893785484, -148.7563906875439, 15.447656766977161, 1.61189688090235, 0.0, 0.0, 0.7520000357180834, 0.0, 0.0, 0.0, 0.0, 0.0, 1.7400592337164817E9, 0.0, 2025-02-20 13:47:13.716
21.0, 2147.035425662063, -91.88560201134533, 11.84987300960347, 66.70485560968518, 0.0, 0.0, 0.7520000357180834, 0.0, 0.0, 0.0, 0.0, 0.0, 1.7400592337167473E9, 0.0, 2025-02-20 13:47:13.716
21.0, 1921.745722281281, -247.86373951332644, 12.829726797994226, 3.5940438574180007, 0.0, 0.0, 0.7520000357180834, 0.0, 0.0, 0.0, 0.0, 0.0, 1.7400592337169368E9, 0.0, 2025-02-20 13:47:13.716
22.0, 1800.679550865665, -325.17682134732604, 12.220123105216771, -51.352566291578114, 0.0, 0.0, 0.7520000357180834, 0.0, 0.0, 0.0, 0.0, 0.0, 1.7400592337175548E9, 0.0, 2025-02-20 13:47:13.717
22.0, 2016.5970649574883, -174.1802305863239, 9.43389763822779, 15.655221214517951, 0.0, 0.0, 0.7520000357180834, 0.0, 0.0, 0.0, 0.0, 0.0, 1.7400592337176633E9, 0.0, 2025-02-20 13:47:13.717
23.0, 2144.41749569308, -92.27081170678139, 14.572520177345723, 69.79027307312936, 0.0, 0.0, 0.7520000357180834, 0.0, 0.0, 0.0, 0.0, 0.0, 1.7400592337183433E9, 0.0, 2025-02-20 13:47:13.718
23.0, 1910.4512244150974, -252.68821045616642, 8.502662549261004, 11.941500558517873, 0.0, 0.0, 0.7520000357180834, 0.0, 0.0, 0.0, 0.0, 0.0, 1.7400592337184258E9, 0.0, 2025-02-20 13:47:13.718
24.0, 1802.54950084351, -330.8876485796645, 8.300707951653749, -54.33700645621866, 0.0, 0.0, 0.7520000357180834, 0.0, 0.0, 0.0, 0.0, 0.0, 1.7400592337467136E9, 0.0, 2025-02-20 13:47:13.746
24.0, 2030.9732403871603, -187.6663098265417, 15.170904170256108, 12.326710253953934, 0.0, 0.0, 0.7520000357180834, 0.0, 0.0, 0.0, 0.0, 0.0, 1.7400592337469532E9, 0.0, 2025-02-20 13:47:13.746
25.0, 2141.257280230522, -111.59861467778683, 10.185617529321462, 71.2563138557598, 0.0, 0.0, 0.7520000357180834, 0.0, 0.0, 0.0, 0.0, 0.0, 1.7400592337471156E9, 0.0, 2025-02-20 13:47:13.747
25.0, 1917.6879308293574, -250.6948437797837, 14.097552882973105, 12.09109655674547, 0.0, 0.0, 0.7520000357180834, 0.0, 0.0, 0.0, 0.0, 0.0, 1.7400592337472243E9, 0.0, 2025-02-20 13:47:13.747
26.0, 1794.347900240682, -354.5799147989601, 12.796067698393017, -42.2421699995175, 0.0, 0.0, 0.7520000357180834, 0.0, 0.0, 0.0, 0.0, 0.0, 1.740059233776442E9, 0.0, 2025-02-20 13:47:13.776
26.0, 2008.3842446547933, -209.83269686391577, 14.69967677583918, 15.543024215847254, 0.0, 0.0, 0.7520000357180834, 0.0, 0.0, 0.0, 0.0, 0.0, 1.740059233776524E9, 0.0, 2025-02-20 13:47:13.776
27.0, 2133.5231671221554, -102.49943808559328, 14.25836858106777, 69.62197757512331, 0.0, 0.0, 0.7520000357180834, 0.0, 0.0, 0.0, 0.0, 0.0, 1.740059233776732E9, 0.0, 2025-02-20 13:47:13.776
27.0, 1914.1986041706987, -255.42581722373143, 11.947110408451408, 9.559184286743402, 0.0, 0.0, 0.7520000357180834, 0.0, 0.0, 0.0, 0.0, 0.0, 1.7400592337769048E9, 0.0, 2025-02-20 13:47:13.776
28.0, 1760.494325841777, -346.898160289973, 5.140492489095777, -50.896298496983945, 0.0, 0.0, 0.7520000357180834, 0.0, 0.0, 0.0, 0.0, 0.0, 1.7400592337774956E9, 0.0, 2025-02-20 13:47:13.777
28.0, 1984.8415744337253, -216.53459758451208, 15.432697167154402, 17.65232779085636, 0.0, 0.0, 0.7520000357180834, 0.0, 0.0, 0.0, 0.0, 0.0, 1.740059233777636E9, 0.0, 2025-02-20 13:47:13.777
29.0, 2103.3122552800924, -129.40427836682647, 15.08114657131955, 68.90017688367516, 0.0, 0.0, 0.7520000357180834, 0.0, 0.0, 0.0, 0.0, 0.0, 1.7400592337788332E9, 0.0, 2025-02-20 13:47:13.778
29.0, 1876.31341761956, -267.37853748211637, 13.727302787359804, 22.405740634538233, 0.0, 0.0, 0.7520000357180834, 0.0, 0.0, 0.0, 0.0, 0.0, 1.740059233778978E9, 0.0, 2025-02-20 13:47:13.778
30.0, 1761.735972627066, -363.7202302906662, 12.971842996310443, -25.70433239545673, 0.0, 0.0, 0.8800000417977571, 0.0, 0.0, 0.0, 0.0, 0.0, 1.740059233806792E9, 0.0, 2025-02-20 13:47:13.806
30.0, 1963.595202785451, -253.04724085191265, 18.869665226433426, 51.03467479534447, 0.0, 0.0, 0.8800000417977571, 0.0, 0.0, 0.0, 0.0, 0.0, 1.7400592338068717E9, 0.0, 2025-02-20 13:47:13.806
31.0, 2009.7810972882435, -221.6563905738294, 11.704016911331564, 164.675274848938, 0.0, -0.01600000075995922, 0.8800000417977571, 0.0, 0.0, 0.0, 0.0, 0.0, 1.740059233807052E9, 0.0, 2025-02-20 13:47:13.807
31.0, 1987.4052758533508, -163.1157365674153, 15.227002669591457, 356.9510113708675, 0.0, -0.01600000075995922, 0.8800000417977571, 0.0, 0.0, 0.0, 0.0, 0.0, 1.740059233807165E9, 0.0, 2025-02-20 13:47:13.807
32.0, 1880.0420978753828, -224.65766028827056, 9.179584441240877, 549.5240699392743, -0.01600000075995922, -0.01600000075995922, 0.8800000417977571, 0.0, 0.0, 0.0, 0.0, 0.0, 1.7400592338363924E9, 0.0, 2025-02-20 13:47:13.836
32.0, 1820.966638175305, -365.7528659165837, 13.89559828536585, 501.83660560427234, -0.01600000075995922, -0.01600000075995922, 0.8800000417977571, 0.0, 0.0, 0.0, 0.0, 0.0, 1.7400592338365219E9, 0.0, 2025-02-20 13:47:13.836
33.0, 2016.4231596095487, -200.32774112652987, 8.63729894766584, 571.0958128836937, -0.01600000075995922, -0.01600000075995922, 0.8800000417977571, 0.0, 0.0, 0.0, 0.0, 0.0, 1.7400592338366432E9, 0.0, 2025-02-20 13:47:13.836
33.0, 1841.2668151347898, -313.3493877374567, 11.932150808628649, 506.7096952465363, -0.01600000075995922, -0.01600000075995922, 0.8800000417977571, 0.0, 0.0, 0.0, 0.0, 0.0, 1.7400592338367093E9, 0.0, 2025-02-20 13:47:13.836
34.0, 1769.9450530298054, -376.57426643837243, 14.340646380092949, 439.17458184668794, -0.01600000075995922, -0.01600000075995922, 0.8800000417977571, 0.0, 0.0, 0.0, 0.0, 0.0, 1.7400592338374395E9, 0.0, 2025-02-20 13:47:13.837
34.0, 1967.9260069341399, -254.9919888288714, 14.953989972826093, 501.3279792102985, -0.01600000075995922, -0.01600000075995922, 0.8800000417977571, 0.0, 0.0, 0.0, 0.0, 0.0, 1.740059233837509E9, 0.0, 2025-02-20 13:47:13.837
35.0, 2106.188238346018, -124.93509791977704, 12.433297402691096, 551.9737044102512, -0.01600000075995922, -0.01600000075995922, 0.8800000417977571, 0.0, 0.0, 0.0, 0.0, 0.0, 1.74005923383819E9, 0.0, 2025-02-20 13:47:13.838
35.0, 1930.7401816747151, -241.3226544908248, 8.304447851609439, 470.6794990734197, -0.01600000075995922, -0.01600000075995922, 0.8800000417977571, 0.0, 0.0, 0.0, 0.0, 0.0, 1.7400592338382907E9, 0.0, 2025-02-20 13:47:13.838
36.0, 1819.940035637468, -323.57988406624645, 9.665771435480565, 404.367332959082, -0.01600000075995922, -0.01600000075995922, 0.8800000417977571, 0.0, 0.0, 0.0, 0.0, 0.0, 1.7400592338665E9, 0.0, 2025-02-20 13:47:13.866
36.0, 2009.6034520403482, -194.14007664984092, 16.2479953574948, 485.3885255991481, -0.01600000075995922, -0.01600000075995922, 0.8800000417977571, 0.0, 0.0, 0.0, 0.0, 0.0, 1.7400592338666189E9, 0.0, 2025-02-20 13:47:13.866
37.0, 2160.8057372989133, -86.3393303770572, 12.837206597905606, 546.8276020712219, -0.01600000075995922, -0.01600000075995922, 0.8800000417977571, 0.0, 0.0, 0.0, 0.0, 0.0, 1.7400592338669124E9, 0.0, 2025-02-20 13:47:13.866
37.0, 1966.3963878522627, -183.46266227634624, 10.305294327903539, 463.07254256354645, -0.01600000075995922, -0.01600000075995922, 0.8800000417977571, 0.0, 0.0, 0.0, 0.0, 0.0, 1.7400592338670382E9, 0.0, 2025-02-20 13:47:13.867
38.0, 1842.3195969723165, -279.841754084453, 7.578907260205597, 400.44791780551895, -0.01600000075995922, -0.01600000075995922, 0.8800000417977571, 0.0, 0.0, 0.0, 0.0, 0.0, 1.7400592338965728E9, 0.0, 2025-02-20 13:47:13.896
38.0, 2041.7217128598131, -163.6561521110125, 15.761808363255113, 481.9104186403565, -0.01600000075995922, -0.01600000075995922, 0.8800000417977571, 0.0, 0.0, 0.0, 0.0, 0.0, 1.74005923389687E9, 0.0, 2025-02-20 13:47:13.896
39.0, 2184.6139404168352, -66.64875711034983, 8.816814145538956, 540.8213227423839, -0.01600000075995922, -0.01600000075995922, 0.8800000417977571, 0.0, 0.0, 0.0, 0.0, 0.0, 1.7400592338969643E9, 0.0, 2025-02-20 13:47:13.896
39.0, 2007.3445524671115, -170.23837603302673, 8.296968051698059, 468.47669799951836, -0.01600000075995922, -0.01600000075995922, 0.8800000417977571, 0.0, 0.0, 0.0, 0.0, 0.0, 1.7400592338970504E9, 0.0, 2025-02-20 13:47:13.897
40.0, 1831.1634754044935, -274.0262096533552, 6.688811070751399, 407.1460786261596, -0.01600000075995922, -0.01600000075995922, 0.9280000440776348, 0.0, 0.0, 0.0, 0.0, 0.0, 1.7400592338973255E9, 0.0, 2025-02-20 13:47:13.897
40.0, 2046.5499237026088, -154.25030372245237, 12.605332800652832, 489.4762362507172, -0.01600000075995922, -0.01600000075995922, 0.9280000440776348, 0.0, 0.0, 0.0, 0.0, 0.0, 1.7400592338974264E9, 0.0, 2025-02-20 13:47:13.897
41.0, 2173.3493617502972, -66.08777211699635, 12.631512100342661, 541.965732128825, -0.01600000075995922, -0.01600000075995922, 0.9280000440776348, 0.0, 0.0, 0.0, 0.0, 0.0, 1.7400592338982036E9, 0.0, 2025-02-20 13:47:13.898
41.0, 1999.6964570577256, -161.84230063250288, 6.801008069422096, 463.32685576053336, -0.01600000075995922, -0.01600000075995922, 0.9280000440776348, 0.0, 0.0, 0.0, 0.0, 0.0, 1.7400592338982725E9, 0.0, 2025-02-20 13:47:13.898
42.0, 1877.1717246593907, -255.117275477387, 9.620892636012286, 403.6941509670578, 0.0, -0.01600000075995922, 0.9280000440776348, 0.0, 0.0, 0.0, 0.0, 0.0, 1.740059233926286E9, 0.0, 2025-02-20 13:47:13.926
42.0, 2033.9838598514907, -170.3543129316531, 13.241115793120116, 490.8861785340123, 0.0, -0.01600000075995922, 0.9280000440776348, 0.0, 0.0, 0.0, 0.0, 0.0, 1.7400592339263592E9, 0.0, 2025-02-20 13:47:13.926
43.0, 2175.9897311190143, -62.546086858958006, 15.799207362812012, 548.1627463554032, 0.0, -0.01600000075995922, 0.9280000440776348, 0.0, 0.0, 0.0, 0.0, 0.0, 1.7400592339268954E9, 0.0, 2025-02-20 13:47:13.926
43.0, 1996.2033904991113, -170.3206538320519, 10.24919582856819, 464.44508584728464, 0.0, -0.01600000075995922, 0.9280000440776348, 0.0, 0.0, 0.0, 0.0, 0.0, 1.740059233927003E9, 0.0, 2025-02-20 13:47:13.927
44.0, 1859.3398816706613, -276.67405882198364, 11.700277011375874, 406.091426838655, 0.0, -0.01600000075995922, 0.9280000440776348, 0.0, 0.0, 0.0, 0.0, 0.0, 1.7400592339562294E9, 0.0, 2025-02-20 13:47:13.956
44.0, 2028.5348256160505, -177.362885448616, 13.375752191524953, 487.2135967775248, 0.0, -0.01600000075995922, 0.9280000440776348, 0.0, 0.0, 0.0, 0.0, 0.0, 1.7400592339563532E9, 0.0, 2025-02-20 13:47:13.956
45.0, 2173.005290954374, -47.97917653154582, 13.843239685986191, 541.4159668353386, 0.0, -0.01600000075995922, 0.9280000440776348, 0.0, 0.0, 0.0, 0.0, 0.0, 1.7400592339567327E9, 0.0, 2025-02-20 13:47:13.956
45.0, 2014.6784962802194, -129.30891091795638, 9.927564432378858, 458.0498569230549, 0.0, -0.01600000075995922, 0.9280000440776348, 0.0, 0.0, 0.0, 0.0, 0.0, 1.7400592339568293E9, 0.0, 2025-02-20 13:47:13.956
46.0, 1876.1956107709557, -244.5258788028732, 9.639592135790735, 384.7178985918872, 0.0, -0.01600000075995922, 0.9280000440776348, 0.0, 0.0, 0.0, 0.0, 0.0, 1.7400592339573517E9, 0.0, 2025-02-20 13:47:13.957
46.0, 2066.663105664309, -143.04182355524972, 14.086333183106035, 468.93296579411253, 0.0, -0.01600000075995922, 0.9280000440776348, 0.0, 0.0, 0.0, 0.0, 0.0, 1.740059233957416E9, 0.0, 2025-02-20 13:47:13.957
47.0, 2212.80156638287, -19.047310474328697, 14.6547979763709, 521.0746509763412, 0.0, -0.01600000075995922, 0.9280000440776348, 0.0, 0.0, 0.0, 0.0, 0.0, 1.7400592339586148E9, 0.0, 2025-02-20 13:47:13.958
47.0, 2050.529177255463, -99.12417837558314, 8.929011144209653, 445.240699574817, 0.0, -0.01600000075995922, 0.9280000440776348, 0.0, 0.0, 0.0, 0.0, 0.0, 1.7400592339587052E9, 0.0, 2025-02-20 13:47:13.958
48.0, 1918.0600508749485, -209.22496312111616, 10.877499021124095, 376.4153206902556, 0.0, -0.01600000075995922, 0.9280000440776348, 0.0, 0.0, 0.0, 0.0, 0.0, 1.7400592339868383E9, 0.0, 2025-02-20 13:47:13.986
48.0, 2088.9342099004425, -131.17512099584565, 10.447410526219755, 467.96059180563316, 0.0, -0.01600000075995922, 0.9280000440776348, 0.0, 0.0, 0.0, 0.0, 0.0, 1.7400592339870586E9, 0.0, 2025-02-20 13:47:13.987
49.0, 2223.5313393557444, -2.6441092686727643, 13.181277393829077, 528.445993789006, 0.0, -0.01600000075995922, 0.9280000440776348, 0.0, 0.0, 0.0, 0.0, 0.0, 1.740059233987152E9, 0.0, 2025-02-20 13:47:13.987
49.0, 2025.5354258515872, -109.7006154502742, 11.225309717003256, 470.44388537621126, 0.0, -0.01600000075995922, 0.9280000440776348, 0.0, 0.0, 0.0, 0.0, 0.0, 1.740059233987213E9, 0.0, 2025-02-20 13:47:13.987
50.0, 1856.7892699008808, -282.5008229529485, 12.829726797994226, 421.5521732554771, 0.0, -0.01600000075995922, 0.9280000440776348, 0.0, 0.0, 0.0, 0.0, 0.0, 1.7400592340163183E9, 0.0, 2025-02-20 13:47:14.016
50.0, 2024.4433750645258, -169.25478234468028, 15.933843761216849, 493.6537045012228, 0.0, -0.01600000075995922, 0.9280000440776348, 0.0, 0.0, 0.0, 0.0, 0.0, 1.7400592340164843E9, 0.0, 2025-02-20 13:47:14.016
51.0, 2164.728892352432, -37.986163849942386, 6.63645247137174, 543.3158360128291, 0.0, -0.01600000075995922, 0.9280000440776348, 0.0, 0.0, 0.0, 0.0, 0.0, 1.7400592340166657E9, 0.0, 2025-02-20 13:47:14.016
51.0, 1994.445637519937, -121.9637474049814, 9.557314336765558, 479.18777147261426, 0.0, -0.01600000075995922, 0.9280000440776348, 0.0, 0.0, 0.0, 0.0, 0.0, 1.7400592340167809E9, 0.0, 2025-02-20 13:47:14.016
52.0, 1828.5904242349789, -259.0890492303297, 9.587233536411077, 422.7377215414308, -0.01600000075995922, -0.01600000075995922, 0.9280000440776348, 0.0, 0.0, 0.0, 0.0, 0.0, 1.7400592340174515E9, 0.0, 2025-02-20 13:47:14.017
52.0, 1962.267538301181, -178.68681003293023, 15.215782969724387, 500.16113042412326, -0.01600000075995922, -0.01600000075995922, 0.9280000440776348, 0.0, 0.0, 0.0, 0.0, 0.0, 1.7400592340176585E9, 0.0, 2025-02-20 13:47:14.017
53.0, 2131.0735326511785, -28.95430545695126, 16.26669485727325, 553.278929494787, -0.01600000075995922, -0.01600000075995922, 0.9280000440776348, 0.0, 0.0, 0.0, 0.0, 0.0, 1.7400592340182095E9, 0.0, 2025-02-20 13:47:14.018
53.0, 1965.8428826588206, -110.15688324486837, 10.585786824580282, 476.34170760633424, -0.01600000075995922, -0.01600000075995922, 0.9280000440776348, 0.0, 0.0, 0.0, 0.0, 0.0, 1.7400592340183144E9, 0.0, 2025-02-20 13:47:14.018
54.0, 1787.2720095245168, -270.17785259895027, 11.767595210578293, 432.4913806258701, -0.01600000075995922, -0.01600000075995922, 0.9280000440776348, 0.0, 0.0, 0.0, 0.0, 0.0, 1.7400592340463364E9, 0.0, 2025-02-20 13:47:14.046
54.0, 1955.2926248838194, -196.65328942006454, 13.327133492100984, 505.5989449596964, -0.01600000075995922, -0.01600000075995922, 0.9280000440776348, 0.0, 0.0, 0.0, 0.0, 0.0, 1.7400592340465412E9, 0.0, 2025-02-20 13:47:14.046
55.0, 2125.882551512681, -56.73428232781589, 12.956883396487683, 549.999037233647, -0.01600000075995922, -0.01600000075995922, 0.9280000440776348, 0.0, 0.0, 0.0, 0.0, 0.0, 1.740059234047073E9, 0.0, 2025-02-20 13:47:14.047
55.0, 1967.8661685348488, -137.21131952432916, 8.749495946336538, 485.3548664995469, -0.01600000075995922, -0.01600000075995922, 0.9280000440776348, 0.0, 0.0, 0.0, 0.0, 0.0, 1.740059234047247E9, 0.0, 2025-02-20 13:47:14.047
56.0, 1802.9496701387689, -289.52809496968985, 8.22217005258426, 432.39414322702214, -0.01600000075995922, -0.01600000075995922, 0.9280000440776348, 0.0, 0.0, 0.0, 0.0, 0.0, 1.7400592340763285E9, 0.0, 2025-02-20 13:47:14.076
56.0, 1936.144337110687, -229.89726012619212, 13.297214292455465, 508.80029932176694, -0.01600000075995922, -0.01600000075995922, 0.9280000440776348, 0.0, 0.0, 0.0, 0.0, 0.0, 1.7400592340764096E9, 0.0, 2025-02-20 13:47:14.076
57.0, 2129.0988654745743, -70.82248546089977, 14.000315484125167, 557.6097336434759, -0.01600000075995922, -0.01600000075995922, 0.9280000440776348, 0.0, 0.0, 0.0, 0.0, 0.0, 1.7400592340766256E9, 0.0, 2025-02-20 13:47:14.076
57.0, 1973.146907272283, -147.63816060079262, 9.568534036632627, 491.3536660284735, -0.01600000075995922, -0.01600000075995922, 0.9280000440776348, 0.0, 0.0, 0.0, 0.0, 0.0, 1.740059234076774E9, 0.0, 2025-02-20 13:47:14.076
58.0, 1770.2853839257732, -307.580592055805, 11.255228916648775, 444.44036098429933, -0.01600000075995922, -0.01600000075995922, 0.9280000440776348, 0.0, 0.0, 0.0, 0.0, 0.0, 1.740059234077477E9, 0.0, 2025-02-20 13:47:14.077
58.0, 1939.2484540739097, -238.86180031998083, 17.13435164699331, 524.3171442379244, -0.01600000075995922, -0.01600000075995922, 0.9280000440776348, 0.0, 0.0, 0.0, 0.0, 0.0, 1.7400592340777333E9, 0.0, 2025-02-20 13:47:14.077
59.0, 2098.831855133176, -85.44175438769162, 15.604732565116137, 567.5167286260985, -0.01600000075995922, -0.01600000075995922, 0.9280000440776348, 0.0, 0.0, 0.0, 0.0, 0.0, 1.7400592340786777E9, 0.0, 2025-02-20 13:47:14.078
59.0, 1958.7183732432313, -157.04774888930842, 9.531135037075728, 505.67748285876587, -0.01600000075995922, -0.01600000075995922, 0.9280000440776348, 0.0, 0.0, 0.0, 0.0, 0.0, 1.7400592340787628E9, 0.0, 2025-02-20 13:47:14.078
60.0, 1747.299958798103, -326.8148975279182, 9.88642553286627, 461.81219627847895, -0.01600000075995922, -0.01600000075995922, 0.9600000455975533, 0.0, 0.0, 0.0, 0.0, 0.0, 1.740059234106289E9, 0.0, 2025-02-20 13:47:14.106
60.0, 1891.7816438362934, -295.21087295236066, 15.174644070211798, 555.1339198728092, -0.01600000075995922, -0.01600000075995922, 0.9600000455975533, 0.0, 0.0, 0.0, 0.0, 0.0, 1.740059234106414E9, 0.0, 2025-02-20 13:47:14.106
61.0, 1958.709023493342, -226.64167721476406, 13.293474392499775, 709.2327576470561, -0.01600000075995922, -0.01600000075995922, 0.9600000455975533, 0.0, 0.0, 0.0, 0.0, 0.0, 1.7400592341069772E9, 0.0, 2025-02-20 13:47:14.106
61.0, 2105.294402256608, -36.13491337187588, 9.88642553286627, 708.1631462597288, -0.01600000075995922, -0.01600000075995922, 0.9600000455975533, 0.0, 0.0, 0.0, 0.0, 0.0, 1.7400592341070879E9, 0.0, 2025-02-20 13:47:14.107
62.0, 2055.77251699334, -27.00207768008113, 7.7060638586990535, 464.5797222456895, 0.0, -0.01600000075995922, 0.9600000455975533, 0.0, 0.0, 0.0, 0.0, 0.0, 1.7400592341362417E9, 0.0, 2025-02-20 13:47:14.136
62.0, 1842.4748028204776, 164.7669023978524, 14.752035375218838, 509.43234241427854, 0.0, -0.01600000075995922, 0.9600000455975533, 0.0, 0.0, 0.0, 0.0, 0.0, 1.740059234136428E9, 0.0, 2025-02-20 13:47:14.136
63.0, 2068.6246831910685, 362.78151540178806, 13.07282029511407, 552.3252550060861, 0.0, -0.01600000075995922, 0.9600000455975533, 0.0, 0.0, 0.0, 0.0, 0.0, 1.7400592341367595E9, 0.0, 2025-02-20 13:47:14.136
63.0, 1947.603390574921, 316.81253509642556, 11.733936110977083, 483.8065479178913, 0.0, -0.01600000075995922, 0.9600000455975533, 0.0, 0.0, 0.0, 0.0, 0.0, 1.7400592341368248E9, 0.0, 2025-02-20 13:47:14.136
64.0, 1775.3641680656, 167.58491701446474, 8.532581748906523, 433.0448858193122, 0.0, -0.01600000075995922, 0.9600000455975533, 0.0, 0.0, 0.0, 0.0, 0.0, 1.7400592341373522E9, 0.0, 2025-02-20 13:47:14.137
64.0, 1922.09353297716, 237.93804503092542, 15.193343569990247, 511.53790608933195, 0.0, -0.01600000075995922, 0.9600000455975533, 0.0, 0.0, 0.0, 0.0, 0.0, 1.7400592341374278E9, 0.0, 2025-02-20 13:47:14.137
65.0, 2125.916210612282, 417.2082794569433, 12.455736802425236, 550.7844162243418, 0.0, -0.01600000075995922, 0.9600000455975533, 0.0, 0.0, 0.0, 0.0, 0.0, 1.740059234138308E9, 0.0, 2025-02-20 13:47:14.138
65.0, 1996.9700699900277, 369.47780627245083, 9.03746824292466, 472.7925425483845, 0.0, -0.01600000075995922, 0.9600000455975533, 0.0, 0.0, 0.0, 0.0, 0.0, 1.7400592341384015E9, 0.0, 2025-02-20 13:47:14.138
66.0, 1806.3529790984467, 195.2751362863928, 10.6905040233396, 425.79695970518515, 0.0, -0.01600000075995922, 0.9600000455975533, 0.0, 0.0, 0.0, 0.0, 0.0, 1.7400592341668975E9, 0.0, 2025-02-20 13:47:14.166
66.0, 1942.3824902367778, 256.82079990720376, 13.529088089708239, 509.8998299087398, 0.0, -0.01600000075995922, 0.9600000455975533, 0.0, 0.0, 0.0, 0.0, 0.0, 1.7400592341670945E9, 0.0, 2025-02-20 13:47:14.167
67.0, 2120.5793733755127, 420.4545126184821, 11.741415910888463, 548.1515266555361, 0.0, -0.01600000075995922, 0.9600000455975533, 0.0, 0.0, 0.0, 0.0, 0.0, 1.7400592341675944E9, 0.0, 2025-02-20 13:47:14.167
67.0, 2012.9506625006907, 379.317483055871, 9.811627533752471, 463.801823054906, 0.0, -0.01600000075995922, 0.9600000455975533, 0.0, 0.0, 0.0, 0.0, 0.0, 1.7400592341677916E9, 0.0, 2025-02-20 13:47:14.167
68.0, 1832.038611994125, 217.01517472881824, 11.012135419528931, 423.09675193717703, 0.0, -0.01600000075995922, 0.9600000455975533, 0.0, 0.0, 0.0, 0.0, 0.0, 1.7400592341966455E9, 0.0, 2025-02-20 13:47:14.196
68.0, 1962.993078892585, 253.29781414894387, 14.781954574864358, 510.65154979983345, 0.0, -0.01600000075995922, 0.9600000455975533, 0.0, 0.0, 0.0, 0.0, 0.0, 1.7400592341968143E9, 0.0, 2025-02-20 13:47:14.196
69.0, 2136.6946022845805, 436.25932983122766, 8.300707951653749, 556.1362130609341, 0.0, -0.01600000075995922, 0.9600000455975533, 0.0, 0.0, 0.0, 0.0, 0.0, 1.7400592341969244E9, 0.0, 2025-02-20 13:47:14.196
69.0, 2023.186768679414, 395.30181546648964, 7.45175066171214, 469.66972608538345, 0.0, -0.01600000075995922, 0.9600000455975533, 0.0, 0.0, 0.0, 0.0, 0.0, 1.740059234197013E9, 0.0, 2025-02-20 13:47:14.197
70.0, 1840.9358339887112, 213.40991117153317, 11.266448616515845, 424.5515730199404, 0.0, -0.01600000075995922, 0.9760000463575125, 0.0, 0.0, 0.0, 0.0, 0.0, 1.7400592341973379E9, 0.0, 2025-02-20 13:47:14.197
70.0, 1920.7845679926686, 236.39720624918118, 15.780507863033563, 512.9179291729815, 0.0, -0.01600000075995922, 0.9760000463575125, 0.0, 0.0, 0.0, 0.0, 0.0, 1.740059234197447E9, 0.0, 2025-02-20 13:47:14.197
71.0, 2157.6193425366655, 415.016698082909, 15.152204670477659, 553.4547047927044, 0.0, 0.0, 0.9760000463575125, 0.0, 0.0, 0.0, 0.0, 0.0, 1.7400592341982849E9, 0.0, 2025-02-20 13:47:14.198
71.0, 2044.5490772263147, 371.2991375508718, 9.194544041063637, 462.4965979703702, 0.0, 0.0, 0.9760000463575125, 0.0, 0.0, 0.0, 0.0, 0.0, 1.74005923419845E9, 0.0, 2025-02-20 13:47:14.198
72.0, 1844.8515092423186, 162.4088954757899, 9.613412836100906, 420.6545972661115, -0.01600000075995922, 0.0, 0.9760000463575125, 0.0, 0.0, 0.0, 0.0, 0.0, 1.7400592342262924E9, 0.0, 2025-02-20 13:47:14.226
72.0, 1981.0380961787887, 185.52708705188707, 13.87315888563171, 512.4616613783874, -0.01600000075995922, 0.0, 0.9760000463575125, 0.0, 0.0, 0.0, 0.0, 0.0, 1.7400592342265089E9, 0.0, 2025-02-20 13:47:14.226
73.0, 2174.4451524373144, 360.00276973471045, 14.232189281377941, 555.9267786634155, -0.01600000075995922, 0.0, 0.9760000463575125, 0.0, 0.0, 0.0, 0.0, 0.0, 1.7400592342269661E9, 0.0, 2025-02-20 13:47:14.226
73.0, 2062.2051449171267, 312.55652894685045, 7.45549056166783, 465.47355833509937, -0.01600000075995922, 0.0, 0.9760000463575125, 0.0, 0.0, 0.0, 0.0, 0.0, 1.740059234227084E9, 0.0, 2025-02-20 13:47:14.227
74.0, 1870.125753142871, 124.29557502735406, 11.621739112306386, 426.8890104922466, -0.01600000075995922, 0.0, 0.9760000463575125, 0.0, 0.0, 0.0, 0.0, 0.0, 1.740059234256152E9, 0.0, 2025-02-20 13:47:14.256
74.0, 1997.5011357837357, 139.72453229455277, 15.982462460640818, 513.2657398688607, -0.01600000075995922, 0.0, 0.9760000463575125, 0.0, 0.0, 0.0, 0.0, 0.0, 1.7400592342562904E9, 0.0, 2025-02-20 13:47:14.256
75.0, 2189.3000350613147, 334.5303111365065, 12.28744130441919, 548.5965747502632, -0.01600000075995922, 0.0, 0.9760000463575125, 0.0, 0.0, 0.0, 0.0, 0.0, 1.740059234256703E9, 0.0, 2025-02-20 13:47:14.256
75.0, 2080.474556200672, 306.7671638154425, 11.84613310964778, 464.2805302492343, -0.01600000075995922, 0.0, 0.9760000463575125, 0.0, 0.0, 0.0, 0.0, 0.0, 1.740059234256866E9, 0.0, 2025-02-20 13:47:14.256
76.0, 1879.8681925274432, 125.98226990737021, 10.331473627593368, 421.27168075880036, -0.01600000075995922, 0.0, 0.9760000463575125, 0.0, 0.0, 0.0, 0.0, 0.0, 1.7400592342572558E9, 0.0, 2025-02-20 13:47:14.257
76.0, 1986.6741254120134, 139.0438705026172, 16.595806053373963, 513.0525655713864, -0.01600000075995922, 0.0, 0.9760000463575125, 0.0, 0.0, 0.0, 0.0, 0.0, 1.7400592342573202E9, 0.0, 2025-02-20 13:47:14.257
77.0, 2184.53166261781, 331.3326966743916, 12.564193901140243, 555.6088871671818, -0.01600000075995922, 0.0, 0.9760000463575125, 0.0, 0.0, 0.0, 0.0, 0.0, 1.7400592342581651E9, 0.0, 2025-02-20 13:47:14.258
77.0, 2084.053640458267, 307.9040934019722, 10.892458620946854, 464.28801004914567, -0.01600000075995922, 0.0, 0.9760000463575125, 0.0, 0.0, 0.0, 0.0, 0.0, 1.7400592342583015E9, 0.0, 2025-02-20 13:47:14.258
78.0, 1872.2761956173927, 124.80420142132789, 10.67554442351684, 419.52514747949317, -0.01600000075995922, 0.0, 0.9760000463575125, 0.0, 0.0, 0.0, 0.0, 0.0, 1.7400592342861457E9, 0.0, 2025-02-20 13:47:14.286
78.0, 1970.6897930013947, 131.68748728977516, 16.143278158735484, 516.4072558316402, -0.01600000075995922, 0.0, 0.9760000463575125, 0.0, 0.0, 0.0, 0.0, 0.0, 1.7400592342862756E9, 0.0, 2025-02-20 13:47:14.286
79.0, 2177.1079612057656, 334.2423388399184, 17.594359341543168, 549.8120422358625, -0.01600000075995922, 0.0, 0.9760000463575125, 0.0, 0.0, 0.0, 0.0, 0.0, 1.7400592342869012E9, 0.0, 2025-02-20 13:47:14.286
79.0, 2079.015995217953, 320.07746775774285, 9.609672936145216, 460.66404699208215, -0.01600000075995922, 0.0, 0.9760000463575125, 0.0, 0.0, 0.0, 0.0, 0.0, 1.7400592342869673E9, 0.0, 2025-02-20 13:47:14.286
80.0, 1857.3577346941456, 111.68837227672338, 11.748895710799843, 421.6643702541478, -0.01600000075995922, 0.0, 0.9920000471174717, 0.0, 0.0, 0.0, 0.0, 0.0, 1.74005923431626E9, 0.0, 2025-02-20 13:47:14.316
80.0, 1948.3962493655272, 128.72922642482445, 13.203716793563217, 517.3347510206513, -0.01600000075995922, 0.0, 0.9920000471174717, 0.0, 0.0, 0.0, 0.0, 0.0, 1.7400592343164668E9, 0.0, 2025-02-20 13:47:14.316
81.0, 2173.8430285444483, 352.45191172417253, 11.90223160898313, 551.4688179162331, -0.01600000075995922, -0.01600000075995922, 0.9920000471174717, 0.0, 0.0, 0.0, 0.0, 0.0, 1.740059234316748E9, 0.0, 2025-02-20 13:47:14.316
81.0, 2061.3524477272294, 321.8314808369614, 11.647918411996216, 463.2034390619956, -0.01600000075995922, -0.01600000075995922, 0.9920000471174717, 0.0, 0.0, 0.0, 0.0, 0.0, 1.7400592343168082E9, 0.0, 2025-02-20 13:47:14.316
82.0, 1855.386807417497, 105.13980745431036, 8.988849543500692, 426.6571366949938, -0.01600000075995922, -0.01600000075995922, 0.9920000471174717, 0.0, 0.0, 0.0, 0.0, 0.0, 1.7400592343173301E9, 0.0, 2025-02-20 13:47:14.317
82.0, 1945.576364798937, 125.35209676483646, 14.606179276946932, 519.0925039998256, -0.01600000075995922, -0.01600000075995922, 0.9920000471174717, 0.0, 0.0, 0.0, 0.0, 0.0, 1.7400592343173995E9, 0.0, 2025-02-20 13:47:14.317
83.0, 2160.9141943976283, 341.0601764591411, 15.556113865692168, 559.6479791193269, -0.01600000075995922, -0.01600000075995922, 0.9920000471174717, 0.0, 0.0, 0.0, 0.0, 0.0, 1.740059234318261E9, 0.0, 2025-02-20 13:47:14.318
83.0, 2063.551508901175, 322.886132624466, 11.116852618288249, 469.9053397825919, -0.01600000075995922, -0.01600000075995922, 0.9920000471174717, 0.0, 0.0, 0.0, 0.0, 0.0, 1.7400592343184009E9, 0.0, 2025-02-20 13:47:14.318
84.0, 1841.2088466854766, 114.18288554716855, 12.979322796221823, 426.8216922930442, -0.01600000075995922, -0.01600000075995922, 0.9920000471174717, 0.0, 0.0, 0.0, 0.0, 0.0, 1.7400592343464413E9, 0.0, 2025-02-20 13:47:14.346
84.0, 1931.6527172639035, 123.10441689146683, 15.589772965293378, 522.9595605540089, -0.01600000075995922, -0.01600000075995922, 0.9920000471174717, 0.0, 0.0, 0.0, 0.0, 0.0, 1.7400592343465848E9, 0.0, 2025-02-20 13:47:14.346
85.0, 2159.421974315308, 343.5322503298521, 9.983662931714207, 561.4206916983239, -0.01600000075995922, -0.01600000075995922, 0.9920000471174717, 0.0, 0.0, 0.0, 0.0, 0.0, 1.7400592343469405E9, 0.0, 2025-02-20 13:47:14.346
85.0, 2078.7542022210546, 343.7491645272821, 9.87146593304351, 464.69939904427156, -0.01600000075995922, -0.01600000075995922, 0.9920000471174717, 0.0, 0.0, 0.0, 0.0, 0.0, 1.7400592343471217E9, 0.0, 2025-02-20 13:47:14.347
86.0, 1835.3596431547776, 114.39418989466503, 8.921531344298273, 428.01098047895357, -0.01600000075995922, -0.01600000075995922, 0.9920000471174717, 0.0, 0.0, 0.0, 0.0, 0.0, 1.740059234376316E9, 0.0, 2025-02-20 13:47:14.376
86.0, 1932.2548411567695, 135.44795669522136, 15.11106577096507, 525.3418768257834, -0.01600000075995922, -0.01600000075995922, 0.9920000471174717, 0.0, 0.0, 0.0, 0.0, 0.0, 1.7400592343764632E9, 0.0, 2025-02-20 13:47:14.376
87.0, 2176.5768954120576, 348.64282361930236, 13.214936493430287, 555.1713188723661, -0.01600000075995922, -0.01600000075995922, 0.9920000471174717, 0.0, 0.0, 0.0, 0.0, 0.0, 1.7400592343766923E9, 0.0, 2025-02-20 13:47:14.376
87.0, 2082.4342637774535, 360.24773318180814, 7.290934963617474, 465.5034775347449, -0.01600000075995922, -0.01600000075995922, 0.9920000471174717, 0.0, 0.0, 0.0, 0.0, 0.0, 1.7400592343767595E9, 0.0, 2025-02-20 13:47:14.376
88.0, 1843.7220594557002, 122.66871854662895, 9.231943040620536, 427.6930889827199, -0.01600000075995922, -0.01600000075995922, 0.9920000471174717, 0.0, 0.0, 0.0, 0.0, 0.0, 1.7400592343774529E9, 0.0, 2025-02-20 13:47:14.377
88.0, 1921.22587618744, 131.42195439292118, 11.191650617402047, 527.855089596007, -0.01600000075995922, -0.01600000075995922, 0.9920000471174717, 0.0, 0.0, 0.0, 0.0, 0.0, 1.7400592343775373E9, 0.0, 2025-02-20 13:47:14.377
89.0, 1681.3636526293121, 361.70442421454936, 14.793174274731427, 551.674512413796, -0.01600000075995922, -0.01600000075995922, 0.9920000471174717, 0.0, 0.0, 0.0, 0.0, 0.0, 1.7400592343782125E9, 0.0, 2025-02-20 13:47:14.378
89.0, 1587.2883391939104, 359.2267404939048, 11.251489016693085, 462.1188680748455, -0.01600000075995922, -0.01600000075995922, 0.9920000471174717, 0.0, 0.0, 0.0, 0.0, 0.0, 1.7400592343783374E9, 0.0, 2025-02-20 13:47:14.378
90.0, 1831.675841698423, 126.54699480067939, 8.727056546602398, 428.50464727310464, -0.01600000075995922, -0.01600000075995922, 0.9920000471174717, 0.0, 0.0, 0.0, 0.0, 0.0, 1.740059234406448E9, 0.0, 2025-02-20 13:47:14.406
90.0, 1916.3153875456192, 131.17138109588996, 13.08030009502545, 525.6747279218398, -0.01600000075995922, -0.01600000075995922, 0.9920000471174717, 0.0, 0.0, 0.0, 0.0, 0.0, 1.740059234406588E9, 0.0, 2025-02-20 13:47:14.406
91.0, 1672.006422940176, 359.501623140648, 12.575413601007313, 551.6857321136631, -0.01600000075995922, -0.01600000075995922, 0.9920000471174717, 0.0, 0.0, 0.0, 0.0, 0.0, 1.740059234406848E9, 0.0, 2025-02-20 13:47:14.406
91.0, 1587.7820059880614, 360.5039163287729, 8.846733345184475, 461.00063798809424, -0.01600000075995922, -0.01600000075995922, 0.9920000471174717, 0.0, 0.0, 0.0, 0.0, 0.0, 1.7400592344069228E9, 0.0, 2025-02-20 13:47:14.406
92.0, 1830.2247605156153, 132.90295477537438, 13.5066486899741, 428.4485487737693, -0.01600000075995922, -0.01600000075995922, 0.9920000471174717, 0.0, 0.0, 0.0, 0.0, 0.0, 1.740059234436471E9, 0.0, 2025-02-20 13:47:14.436
92.0, 1906.3522940636612, 113.68734880303964, 13.51786838984117, 528.1131426929496, -0.01600000075995922, -0.01600000075995922, 0.9920000471174717, 0.0, 0.0, 0.0, 0.0, 0.0, 1.7400592344366066E9, 0.0, 2025-02-20 13:47:14.436
93.0, 1662.4883775529452, -115.1459097857587, 10.462370126042515, 556.1549125607125, -0.01600000075995922, -0.01600000075995922, 0.9920000471174717, 0.0, 0.0, 0.0, 0.0, 0.0, 1.7400592344369192E9, 0.0, 2025-02-20 13:47:14.436
93.0, 1599.9852995434776, -118.30425529833883, 12.66517119994387, 463.51011085836217, -0.01600000075995922, -0.01600000075995922, 0.9920000471174717, 0.0, 0.0, 0.0, 0.0, 0.0, 1.7400592344370224E9, 0.0, 2025-02-20 13:47:14.437
94.0, 1826.080951364711, -363.24339304631576, 12.343539803754538, 435.0382524956949, -0.01600000075995922, -0.01600000075995922, 0.9920000471174717, 0.0, 0.0, 0.0, 0.0, 0.0, 1.7400592344374423E9, 0.0, 2025-02-20 13:47:14.437
94.0, 1895.742197889369, -365.6369290179573, 16.880038450006396, 534.5270711169578, -0.01600000075995922, -0.01600000075995922, 0.9920000471174717, 0.0, 0.0, 0.0, 0.0, 0.0, 1.7400592344375832E9, 0.0, 2025-02-20 13:47:14.437
95.0, 1651.6613671812229, -604.6988139855675, 14.325686780270189, 557.4302184456028, -0.01600000075995922, -0.01600000075995922, 0.9920000471174717, 0.0, 0.0, 0.0, 0.0, 0.0, 1.7400592344383037E9, 0.0, 2025-02-20 13:47:14.438
95.0, 1592.8570502279326, -601.6881945212372, 8.296968051698059, 458.0087180235423, -0.01600000075995922, -0.01600000075995922, 0.9920000471174717, 0.0, 0.0, 0.0, 0.0, 0.0, 1.7400592344383733E9, 0.0, 2025-02-20 13:47:14.438
96.0, 1831.9114553956315, -844.2337962975726, 9.931304332334548, 432.2969058281742, -0.01600000075995922, -0.01600000075995922, 0.9920000471174717, 0.0, 0.0, 0.0, 0.0, 0.0, 1.740059234466312E9, 0.0, 2025-02-20 13:47:14.466
96.0, 1901.1613129251637, -858.086385733448, 18.847225826699287, 532.9263939359225, -0.01600000075995922, -0.01600000075995922, 0.9920000471174717, 0.0, 0.0, 0.0, 0.0, 0.0, 1.740059234466432E9, 0.0, 2025-02-20 13:47:14.466
97.0, 1659.1224675928243, -1089.0887862965465, 17.182970346417278, 560.2875020117499, -0.01600000075995922, -0.01600000075995922, 0.9920000471174717, 0.0, 0.0, 0.0, 0.0, 0.0, 1.7400592344669101E9, 0.0, 2025-02-20 13:47:14.466
97.0, 1596.9971194788814, -1083.5387747623026, 11.84613310964778, 461.6102416808717, -0.01600000075995922, -0.01600000075995922, 0.9920000471174717, 0.0, 0.0, 0.0, 0.0, 0.0, 1.7400592344670897E9, 0.0, 2025-02-20 13:47:14.467
98.0, 1823.126430399716, -847.5286481585354, 14.30324738053605, 444.0775906885974, -0.01600000075995922, -0.01600000075995922, 0.9920000471174717, 0.0, 0.0, 0.0, 0.0, 0.0, 1.7400592344965315E9, 0.0, 2025-02-20 13:47:14.496
98.0, 1881.4071613592096, -861.6355507913977, 15.660831064451486, 538.1622538738884, -0.01600000075995922, -0.01600000075995922, 0.9920000471174717, 0.0, 0.0, 0.0, 0.0, 0.0, 1.7400592344967113E9, 0.0, 2025-02-20 13:47:14.496
99.0, 1646.5115249422379, -1096.4825685089454, 8.839253545273095, 556.1062938612886, -0.01600000075995922, -0.01600000075995922, 0.9920000471174717, 0.0, 0.0, 0.0, 0.0, 0.0, 1.7400592344969285E9, 0.0, 2025-02-20 13:47:14.496
99.0, 1580.75473397132, -1086.912164522335, 11.935890708584338, 470.21575147891417, -0.01600000075995922, -0.01600000075995922, 0.9920000471174717, 0.0, 0.0, 0.0, 0.0, 0.0, 1.7400592344969869E9, 0.0, 2025-02-20 13:47:14.496
100.0, 1813.5896855127066, -858.4678555289283, 9.48625623760745, 445.6109496704303, -0.01600000075995922, -0.01600000075995922, 0.9920000471174717, 0.0, 0.0, 0.0, 0.0, 0.0, 1.7400592344974265E9, 0.0, 2025-02-20 13:47:14.497
100.0, 1866.3166650380008, -871.6771821724251, 13.278514792677015, 542.5341969220899, -0.01600000075995922, -0.01600000075995922, 0.9920000471174717, 0.0, 0.0, 0.0, 0.0, 0.0, 1.7400592344975011E9, 0.0, 2025-02-20 13:47:14.497
0.0, -314.8434777697548, -616.9937350898981, 12.867125797551125, 73.2945593316108, -0.01600000075995922, -0.01600000075995922, 0.9920000471174717, 0.0, 0.0, 0.0, 0.0, 0.0, 1.7400592344991012E9, 0.0, 2025-02-20 13:47:14.499
1.0, -393.0167365935631, -585.0437697684392, 11.767595210578293, -28.898206957615912, -0.01600000075995922, -0.01600000075995922, 0.9920000471174717, 0.0, 0.0, 0.0, 0.0, 0.0, 1.740059234526411E9, 0.0, 2025-02-20 13:47:14.526
1.0, -631.2053549215198, -817.2560279672034, 10.701723723206669, -53.23747586924583, -0.01600000075995922, -0.01600000075995922, 0.9920000471174717, 0.0, 0.0, 0.0, 0.0, 0.0, 1.740059234526552E9, 0.0, 2025-02-20 13:47:14.526
2.0, -589.2118882690556, -823.8232922893949, 16.988495548721403, 39.94961132667959, 0.0, -0.01600000075995922, 0.9920000471174717, 0.0, 0.0, 0.0, 0.0, 0.0, 1.740059234526758E9, 0.0, 2025-02-20 13:47:14.526
2.0, -821.7626074138097, -1017.0826224996708, 15.148464770521969, 59.66636389307678, 0.0, -0.01600000075995922, 0.9920000471174717, 0.0, 0.0, 0.0, 0.0, 0.0, 1.7400592345268219E9, 0.0, 2025-02-20 13:47:14.526
3.0, -882.6126496428624, -967.861799182836, 12.29866100428626, -36.61736046615988, 0.0, -0.01600000075995922, 0.9920000471174717, 0.0, 0.0, 0.0, 0.0, 0.0, 1.7400592345279377E9, 0.0, 2025-02-20 13:47:14.527
3.0, -661.1170747671276, -731.1373516875319, 16.027341260109097, -60.38068478461355, 0.0, -0.01600000075995922, 0.9920000471174717, 0.0, 0.0, 0.0, 0.0, 0.0, 1.7400592345280347E9, 0.0, 2025-02-20 13:47:14.528
4.0, -620.4849316985346, -742.3308722549118, 19.370811820495874, 38.004863349720836, 0.0, -0.01600000075995922, 0.9920000471174717, 0.0, 0.0, 0.0, 0.0, 0.0, 1.7400592345566502E9, 0.0, 2025-02-20 13:47:14.556
4.0, -824.7881864779629, -937.1460008467548, 12.410858002956957, 57.51218151859939, 0.0, -0.01600000075995922, 0.9920000471174717, 0.0, 0.0, 0.0, 0.0, 0.0, 1.7400592345568385E9, 0.0, 2025-02-20 13:47:14.556
5.0, -883.8131575286388, -936.9328265492804, 7.960377055685967, -36.56874176673591, 0.0, -0.01600000075995922, 0.9920000471174717, 0.0, 0.0, 0.0, 0.0, 0.0, 1.7400592345569396E9, 0.0, 2025-02-20 13:47:14.556
5.0, -656.5020382218063, -721.3949123029597, 9.89390533277765, -51.62931888829917, 0.0, -0.01600000075995922, 0.9920000471174717, 0.0, 0.0, 0.0, 0.0, 0.0, 1.7400592345570357E9, 0.0, 2025-02-20 13:47:14.557
6.0, -605.2822383786552, -758.3937425646, 12.620292400475591, 41.277275810949504, 0.0, -0.01600000075995922, 0.9920000471174717, 0.0, 0.0, 0.0, 0.0, 0.0, 1.7400592345575087E9, 0.0, 2025-02-20 13:47:14.557
6.0, -815.9508028826676, -977.5967587674968, 10.118299330119044, 58.578053005971014, 0.0, -0.01600000075995922, 0.9920000471174717, 0.0, 0.0, 0.0, 0.0, 0.0, 1.7400592345576909E9, 0.0, 2025-02-20 13:47:14.557
7.0, -873.5546119501814, -961.8854390536435, 7.687364358920604, -32.09208151977509, 0.0, -0.01600000075995922, 0.9920000471174717, 0.0, 0.0, 0.0, 0.0, 0.0, 1.7400592345863335E9, 0.0, 2025-02-20 13:47:14.586
7.0, -646.9727731347084, -755.7870322954841, 8.865432844962925, -50.552227701060474, 0.0, -0.01600000075995922, 0.9920000471174717, 0.0, 0.0, 0.0, 0.0, 0.0, 1.740059234586466E9, 0.0, 2025-02-20 13:47:14.586
8.0, -599.3208378492855, -786.5813685306348, 12.934443996753544, 40.55173521954566, 0.0, -0.01600000075995922, 0.9920000471174717, 0.0, 0.0, 0.0, 0.0, 0.0, 1.7400592345866551E9, 0.0, 2025-02-20 13:47:14.586
8.0, -804.8881788137369, -980.3605448347516, 11.431004214566201, 54.80823385063559, 0.0, -0.01600000075995922, 0.9920000471174717, 0.0, 0.0, 0.0, 0.0, 0.0, 1.7400592345867615E9, 0.0, 2025-02-20 13:47:14.586
9.0, -852.0053084054962, -967.4317106879316, 13.256075392942876, -40.25254322309047, 0.0, -0.01600000075995922, 0.9920000471174717, 0.0, 0.0, 0.0, 0.0, 0.0, 1.7400592345875866E9, 0.0, 2025-02-20 13:47:14.587
9.0, -640.4391679121181, -760.0131192454137, 11.793774510268122, -54.04529425967485, 0.0, -0.01600000075995922, 0.9920000471174717, 0.0, 0.0, 0.0, 0.0, 0.0, 1.7400592345876777E9, 0.0, 2025-02-20 13:47:14.587
10.0, -589.2567670685239, -793.4478248492815, 12.822246998082846, 40.73873021733016, 0.0, -0.01600000075995922, 0.9920000471174717, 0.0, 0.0, 0.0, 0.0, 0.0, 1.7400592346161373E9, 0.0, 2025-02-20 13:47:14.616
10.0, -798.7734423861839, -984.2986594880931, 11.89475180907175, 57.60941891744733, 0.0, -0.01600000075995922, 0.9920000471174717, 0.0, 0.0, 0.0, 0.0, 0.0, 1.7400592346162183E9, 0.0, 2025-02-20 13:47:14.616
11.0, -849.7613684320822, -970.8312797476538, 5.929611379746348, -43.233243487775326, 0.0, 0.0, 0.9920000471174717, 0.0, 0.0, 0.0, 0.0, 0.0, 1.7400592346170263E9, 0.0, 2025-02-20 13:47:14.617
11.0, -643.5133656756952, -777.1942196418531, 11.49458251381293, -51.01597529556602, 0.0, 0.0, 0.9920000471174717, 0.0, 0.0, 0.0, 0.0, 0.0, 1.74005923461721E9, 0.0, 2025-02-20 13:47:14.617
12.0, -604.3397835898213, -815.3748582894914, 10.739122722763568, 37.8328279517591, 0.0, 0.0, 0.9920000471174717, 0.0, 0.0, 0.0, 0.0, 0.0, 1.740059234617951E9, 0.0, 2025-02-20 13:47:14.617
12.0, -803.2912415326573, -994.6694020652212, 12.597853000741452, 56.33037313260138, 0.0, 0.0, 0.9920000471174717, 0.0, 0.0, 0.0, 0.0, 0.0, 1.7400592346180825E9, 0.0, 2025-02-20 13:47:14.618
13.0, -846.9003449659795, -968.8640923709609, 7.096460165921599, -39.93091182690114, 0.0, 0.0, 0.9920000471174717, 0.0, 0.0, 0.0, 0.0, 0.0, 1.740059234646551E9, 0.0, 2025-02-20 13:47:14.646
13.0, -644.601676562801, -785.5454162429087, 13.566487089265138, -49.79302801005542, 0.0, 0.0, 0.9920000471174717, 0.0, 0.0, 0.0, 0.0, 0.0, 1.7400592346467242E9, 0.0, 2025-02-20 13:47:14.646
14.0, -593.3295181202702, -813.7928806082346, 14.632358576636761, 39.620500130578876, 0.0, 0.0, 0.9920000471174717, 0.0, 0.0, 0.0, 0.0, 0.0, 1.7400592346470752E9, 0.0, 2025-02-20 13:47:14.647
14.0, -787.5088637196459, -1000.701860693749, 13.637545188423246, 54.164971058256924, 0.0, 0.0, 0.9920000471174717, 0.0, 0.0, 0.0, 0.0, 0.0, 1.7400592346472304E9, 0.0, 2025-02-20 13:47:14.647
15.0, -841.7617224268615, -969.1857237671502, 10.406271626707166, -36.804355463944376, 0.0, 0.0, 0.9920000471174717, 0.0, 0.0, 0.0, 0.0, 0.0, 1.740059234647617E9, 0.0, 2025-02-20 13:47:14.647
15.0, -646.049017845653, -779.004331220407, 10.757822222542018, -47.37705263867974, 0.0, 0.0, 0.9920000471174717, 0.0, 0.0, 0.0, 0.0, 0.0, 1.74005923464768E9, 0.0, 2025-02-20 13:47:14.647
16.0, -605.959160270635, -833.1431229789741, 15.982462460640818, 36.27328967023641, 0.0, 0.0, 0.9920000471174717, 0.0, 0.0, 0.0, 0.0, 0.0, 1.7400592346763432E9, 0.0, 2025-02-20 13:47:14.676
16.0, -787.9613916142844, -1005.9227610318922, 9.400238538626581, 59.737421992234886, 0.0, 0.0, 0.9920000471174717, 0.0, 0.0, 0.0, 0.0, 0.0, 1.7400592346764572E9, 0.0, 2025-02-20 13:47:14.676
17.0, -816.0798294311389, -967.6523647853173, 10.578307024668902, -46.445817549712956, 0.0, 0.0, 0.9920000471174717, 0.0, 0.0, 0.0, 0.0, 0.0, 1.7400592346767516E9, 0.0, 2025-02-20 13:47:14.676
17.0, -630.3115188321099, -786.6000680304132, 10.372612527105957, -61.9177836664021, 0.0, 0.0, 0.9920000471174717, 0.0, 0.0, 0.0, 0.0, 0.0, 1.7400592346768188E9, 0.0, 2025-02-20 13:47:14.676
18.0, -613.4576596817933, -834.7400602600537, 10.301554427947849, 42.36558669805527, 0.0, 0.0, 0.9920000471174717, 0.0, 0.0, 0.0, 0.0, 0.0, 1.7400592346783311E9, 0.0, 2025-02-20 13:47:14.678
18.0, -794.008809842635, -991.2922724052332, 10.002362431492656, 52.71388987544924, 0.0, 0.0, 0.9920000471174717, 0.0, 0.0, 0.0, 0.0, 0.0, 1.7400592346784644E9, 0.0, 2025-02-20 13:47:14.678
19.0, -809.9501334037632, -963.3103409367613, 9.534874937031418, -48.67479792330414, 0.0, 0.0, 0.9920000471174717, 0.0, 0.0, 0.0, 0.0, 0.0, 1.740059234706242E9, 0.0, 2025-02-20 13:47:14.706
19.0, -658.4654856985435, -797.3709799028002, 9.119746041949838, -59.99921498913318, 0.0, 0.0, 0.9920000471174717, 0.0, 0.0, 0.0, 0.0, 0.0, 1.74005923470643E9, 0.0, 2025-02-20 13:47:14.706
20.0, -598.5391987585463, -824.6984288790263, 12.620292400475591, 38.419992244802415, 0.0, 0.0, 0.9920000471174717, 0.0, 0.0, 0.0, 0.0, 0.0, 1.7400592347066383E9, 0.0, 2025-02-20 13:47:14.706
20.0, -788.6420534062199, -996.4495944441296, 12.859645997639745, 49.23578291665763, 0.0, 0.0, 0.9920000471174717, 0.0, 0.0, 0.0, 0.0, 0.0, 1.740059234706756E9, 0.0, 2025-02-20 13:47:14.706
21.0, -817.4224535152316, -960.6811912679113, 7.6275259596295655, -47.20127734076232, 0.0, 0.0, 0.9920000471174717, 0.0, 0.0, 0.0, 0.0, 0.0, 1.7400592347076428E9, 0.0, 2025-02-20 13:47:14.707
21.0, -655.4810455339029, -801.9673169483431, 11.150511717889458, -48.40178522653878, 0.0, 0.0, 0.9920000471174717, 0.0, 0.0, 0.0, 0.0, 0.0, 1.7400592347077446E9, 0.0, 2025-02-20 13:47:14.707
22.0, -608.4349740413018, -843.3680094578303, 16.63320505293086, 49.46017691399902, 0.0, 0.0, 0.9920000471174717, 0.0, 0.0, 0.0, 0.0, 0.0, 1.740059234736691E9, 0.0, 2025-02-20 13:47:14.736
22.0, -789.0945813008584, -997.7622993285768, 12.380938803311437, 52.964463172480464, 0.0, 0.0, 0.9920000471174717, 0.0, 0.0, 0.0, 0.0, 0.0, 1.7400592347367997E9, 0.0, 2025-02-20 13:47:14.736
23.0, -809.1834539128467, -964.0919800275005, 7.02540206676349, -39.9832704262808, 0.0, 0.0, 0.9920000471174717, 0.0, 0.0, 0.0, 0.0, 0.0, 1.74005923473695E9, 0.0, 2025-02-20 13:47:14.736
23.0, -647.1410686327145, -813.0972592164762, 11.03457481926307, -48.75333582237363, 0.0, 0.0, 0.9920000471174717, 0.0, 0.0, 0.0, 0.0, 0.0, 1.7400592347370634E9, 0.0, 2025-02-20 13:47:14.737
24.0, -623.9817381571047, -863.8327420153655, 15.623432064894587, 46.909565144218504, 0.0, 0.0, 0.9920000471174717, 0.0, 0.0, 0.0, 0.0, 0.0, 1.7400592347381322E9, 0.0, 2025-02-20 13:47:14.738
24.0, -766.9094947637059, -1015.8596752141602, 13.570226989220828, 60.64995758142322, 0.0, 0.0, 0.9920000471174717, 0.0, 0.0, 0.0, 0.0, 0.0, 1.7400592347383072E9, 0.0, 2025-02-20 13:47:14.738
25.0, -796.2471399661154, -960.6138730687089, 9.897645232733339, -46.79362824559212, 0.0, 0.0, 0.9920000471174717, 0.0, 0.0, 0.0, 0.0, 0.0, 1.7400592347662804E9, 0.0, 2025-02-20 13:47:14.766
25.0, -645.3533964538947, -816.4070706772618, 13.09151979489252, -54.164971058256924, 0.0, 0.0, 0.9920000471174717, 0.0, 0.0, 0.0, 0.0, 0.0, 1.7400592347663496E9, 0.0, 2025-02-20 13:47:14.766
26.0, -628.6753126014955, -863.3128959215246, 19.12023852346465, 50.19319730531424, 0.0, 0.0, 0.9920000471174717, 0.0, 0.0, 0.0, 0.0, 0.0, 1.7400592347666812E9, 0.0, 2025-02-20 13:47:14.766
26.0, -774.699706371408, -1010.724792574998, 14.587479777168483, 47.18631774093956, 0.0, 0.0, 0.9920000471174717, 0.0, 0.0, 0.0, 0.0, 0.0, 1.7400592347667403E9, 0.0, 2025-02-20 13:47:14.766
27.0, -786.6804758794606, -962.2482093493454, 5.1330126891843975, -46.501916049048305, 0.0, 0.0, 0.9920000471174717, 0.0, 0.0, 0.0, 0.0, 0.0, 1.7400592347678049E9, 0.0, 2025-02-20 13:47:14.767
27.0, -648.5659705158323, -823.9392291880213, 8.891612144652754, -49.49757591355592, 0.0, 0.0, 0.9920000471174717, 0.0, 0.0, 0.0, 0.0, 0.0, 1.7400592347678635E9, 0.0, 2025-02-20 13:47:14.767
28.0, -629.1951586953364, -869.4612914486788, 12.983062696177512, 52.25762208085507, 0.0, 0.0, 0.9920000471174717, 0.0, 0.0, 0.0, 0.0, 0.0, 1.7400592347965071E9, 0.0, 2025-02-20 13:47:14.796
28.0, -760.3010915420018, -1002.8223839686252, 10.443670626264066, 55.18596374616027, 0.0, 0.0, 0.9920000471174717, 0.0, 0.0, 0.0, 0.0, 0.0, 1.7400592347967367E9, 0.0, 2025-02-20 13:47:14.796
29.0, -793.610510497354, -963.2467626375146, 7.7472027582116425, -52.62039237655699, 0.0, 0.0, 0.9920000471174717, 0.0, 0.0, 0.0, 0.0, 0.0, 1.7400592347968433E9, 0.0, 2025-02-20 13:47:14.796
29.0, -636.9161821538582, -833.8163049709983, 7.8668795567937195, -51.01223539561033, 0.0, 0.0, 0.9920000471174717, 0.0, 0.0, 0.0, 0.0, 0.0, 1.7400592347969332E9, 0.0, 2025-02-20 13:47:14.796
30.0, -621.9659320809878, -876.525962464977, 13.312173892278224, 53.379592067562044, 0.0, 0.0, 0.9920000471174717, 0.0, 0.0, 0.0, 0.0, 0.0, 1.7400592347977712E9, 0.0, 2025-02-20 13:47:14.797
30.0, -765.2115801838227, -1006.442607125733, 12.69883029954508, 57.13071172311902, 0.0, 0.0, 0.9920000471174717, 0.0, 0.0, 0.0, 0.0, 0.0, 1.740059234797832E9, 0.0, 2025-02-20 13:47:14.797
31.0, -799.4484943281859, -951.1668857806362, 13.49916889006272, -46.00076945498586, 0.0, 0.0, 0.9920000471174717, 0.0, 0.0, 0.0, 0.0, 0.0, 1.7400592348263388E9, 0.0, 2025-02-20 13:47:14.826
31.0, -648.7118266141042, -817.4579825648107, 10.410011526662856, -60.02165438886732, 0.0, 0.0, 0.9920000471174717, 0.0, 0.0, 0.0, 0.0, 0.0, 1.7400592348264418E9, 0.0, 2025-02-20 13:47:14.826
32.0, -605.7272864733823, -862.463938631583, 12.044347807299346, 30.809295834973454, 0.0, 0.0, 0.9920000471174717, 0.0, 0.0, 0.0, 0.0, 0.0, 1.7400592348271043E9, 0.0, 2025-02-20 13:47:14.827
32.0, -747.9295024885796, -977.3349657705985, 11.030834919307381, 31.605894525535405, 0.0, 0.0, 0.9920000471174717, 0.0, 0.0, 0.0, 0.0, 0.0, 1.7400592348275075E9, 0.0, 2025-02-20 13:47:14.827
33.0, -766.9899026127532, -923.0465780138038, 6.554174672346562, -71.68640235066414, 0.0, 0.0, 0.9920000471174717, 0.0, 0.0, 0.0, 0.0, 0.0, 1.7400592348276987E9, 0.0, 2025-02-20 13:47:14.827
33.0, -630.9809609241784, -781.887794086244, 13.431850690860301, -69.95482867117971, 0.0, 0.0, 0.9920000471174717, 0.0, 0.0, 0.0, 0.0, 0.0, 1.7400592348278556E9, 0.0, 2025-02-20 13:47:14.827
34.0, -597.4583676713519, -834.2089944663458, 13.753482087049633, 33.176652506925166, 0.0, 0.0, 0.9920000471174717, 0.0, 0.0, 0.0, 0.0, 0.0, 1.7400592348565361E9, 0.0, 2025-02-20 13:47:14.856
34.0, -739.7653008853085, -943.885300566908, 10.619445924181491, 29.986517844721675, 0.0, 0.0, 0.9920000471174717, 0.0, 0.0, 0.0, 0.0, 0.0, 1.7400592348566477E9, 0.0, 2025-02-20 13:47:14.856
35.0, -756.0581750422716, -903.7262548427097, 7.885579056572169, -66.55525961145759, 0.0, 0.0, 0.9920000471174717, 0.0, 0.0, 0.0, 0.0, 0.0, 1.740059234856927E9, 0.0, 2025-02-20 13:47:14.856
35.0, -623.7741737095639, -791.5816147713922, 13.742262387182564, -55.4701961427927, 0.0, 0.0, 0.9920000471174717, 0.0, 0.0, 0.0, 0.0, 0.0, 1.7400592348570187E9, 0.0, 2025-02-20 13:47:14.857
36.0, -631.0707185231149, -847.1415685131215, 14.239669081289321, 53.94057706091553, 0.0, 0.0, 0.9920000471174717, 0.0, 0.0, 0.0, 0.0, 0.0, 1.740059234857633E9, 0.0, 2025-02-20 13:47:14.857
36.0, -762.5394216654822, -989.7327341237105, 11.45718351425603, 49.46017691399902, 0.0, 0.0, 0.9920000471174717, 0.0, 0.0, 0.0, 0.0, 0.0, 1.7400592348577065E9, 0.0, 2025-02-20 13:47:14.857
37.0, -799.7869552741759, -947.74487732118, 10.772781822364777, -42.79193529300392, 0.0, 0.0, 0.9920000471174717, 0.0, 0.0, 0.0, 0.0, 0.0, 1.740059234886577E9, 0.0, 2025-02-20 13:47:14.886
37.0, -675.7756126434542, -850.9637462678365, 13.016721795778722, -32.417452815920115, 0.0, 0.0, 0.9920000471174717, 0.0, 0.0, 0.0, 0.0, 0.0, 1.7400592348867292E9, 0.0, 2025-02-20 13:47:14.886
38.0, -681.0376518811099, -915.0693714083172, 10.510988825466484, 71.073058757931, 0.0, 0.0, 0.9920000471174717, 0.0, 0.0, 0.0, 0.0, 0.0, 1.7400592348871088E9, 0.0, 2025-02-20 13:47:14.887
38.0, -814.3650853014551, -1024.0575359170325, 8.24086955236271, 77.9993534758687, 0.0, 0.0, 0.9920000471174717, 0.0, 0.0, 0.0, 0.0, 0.0, 1.74005923488753E9, 0.0, 2025-02-20 13:47:14.887
39.0, -829.9137193672359, -991.464307803195, 8.483963049482554, -21.250111548230052, 0.0, 0.0, 0.9920000471174717, 0.0, 0.0, 0.0, 0.0, 0.0, 1.740059234887636E9, 0.0, 2025-02-20 13:47:14.887
39.0, -728.9925190629438, -880.1237462223507, 11.367425915319473, -20.1206617616117, 0.0, 0.0, 0.9920000471174717, 0.0, 0.0, 0.0, 0.0, 0.0, 1.7400592348877327E9, 0.0, 2025-02-20 13:47:14.887
40.0, -696.6592139960267, -934.1316414824687, 14.26584838097915, 76.44729499425739, 0.0, 0.0, 1.008000047877431, 0.0, 0.0, 0.0, 0.0, 0.0, 1.7400592349163916E9, 0.0, 2025-02-20 13:47:14.916
40.0, -822.6340041034855, -1030.4527648412623, 8.454043849837035, 62.51616765931249, 0.0, 0.0, 1.008000047877431, 0.0, 0.0, 0.0, 0.0, 0.0, 1.740059234916654E9, 0.0, 2025-02-20 13:47:14.916
41.0, -830.7888559568673, -976.183076584246, 11.84239320969209, -35.06904188450426, 0.0, 0.0, 1.008000047877431, 0.0, 0.0, 0.0, 0.0, 0.0, 1.7400592349169157E9, 0.0, 2025-02-20 13:47:14.916
41.0, -709.2234078971669, -886.8817454422824, 10.2828549281694, -39.15675253607333, 0.0, 0.0, 1.008000047877431, 0.0, 0.0, 0.0, 0.0, 0.0, 1.7400592349170756E9, 0.0, 2025-02-20 13:47:14.917
42.0, -702.9983444209211, -928.8883017445914, 12.122885706368834, 68.4027701895684, -0.01600000075995922, 0.0, 1.008000047877431, 0.0, 0.0, 0.0, 0.0, 0.0, 1.7400592349176707E9, 0.0, 2025-02-20 13:47:14.917
42.0, -801.4549506544136, -1011.2708179685287, 10.765302022453398, 51.57322038896382, -0.01600000075995922, 0.0, 1.008000047877431, 0.0, 0.0, 0.0, 0.0, 0.0, 1.7400592349177372E9, 0.0, 2025-02-20 13:47:14.917
43.0, -806.2102334480733, -964.652965020854, 10.133258929941803, -50.492389301769435, -0.01600000075995922, 0.0, 1.008000047877431, 0.0, 0.0, 0.0, 0.0, 0.0, 1.7400592349462264E9, 0.0, 2025-02-20 13:47:14.946
43.0, -708.2921728082001, -866.540429583285, 12.68013079976663, -39.76635622885078, -0.01600000075995922, 0.0, 1.008000047877431, 0.0, 0.0, 0.0, 0.0, 0.0, 1.7400592349464796E9, 0.0, 2025-02-20 13:47:14.946
44.0, -679.9007222945802, -919.0187057615258, 12.220123105216771, 62.86397835519165, -0.01600000075995922, 0.0, 1.008000047877431, 0.0, 0.0, 0.0, 0.0, 0.0, 1.740059234946944E9, 0.0, 2025-02-20 13:47:14.946
44.0, -777.6205682368018, -1012.0487171593122, 10.65684492373839, 40.66767211817205, -0.01600000075995922, 0.0, 1.008000047877431, 0.0, 0.0, 0.0, 0.0, 0.0, 1.7400592349471025E9, 0.0, 2025-02-20 13:47:14.947
45.0, -795.8993292702362, -939.3413221207447, 9.635852235835046, -54.77831465099007, -0.01600000075995922, 0.0, 1.008000047877431, 0.0, 0.0, 0.0, 0.0, 0.0, 1.7400592349475691E9, 0.0, 2025-02-20 13:47:14.947
45.0, -687.1318188589066, -843.8616762519814, 12.343539803754538, -48.068934130482376, -0.01600000075995922, 0.0, 1.008000047877431, 0.0, 0.0, 0.0, 0.0, 0.0, 1.7400592349476805E9, 0.0, 2025-02-20 13:47:14.947
46.0, -674.5414456580766, -906.1908489135094, 12.358499403577298, 55.66841084044427, -0.01600000075995922, 0.0, 1.008000047877431, 0.0, 0.0, 0.0, 0.0, 0.0, 1.7400592349762073E9, 0.0, 2025-02-20 13:47:14.976
46.0, -771.9097410044633, -990.1628226186149, 10.597006524447352, 53.20007686968893, -0.01600000075995922, 0.0, 1.008000047877431, 0.0, 0.0, 0.0, 0.0, 0.0, 1.7400592349763792E9, 0.0, 2025-02-20 13:47:14.976
47.0, -768.7083866423927, -939.7227919162251, 5.42098498577252, -59.1390379993245, -0.01600000075995922, 0.0, 1.008000047877431, 0.0, 0.0, 0.0, 0.0, 0.0, 1.7400592349766905E9, 0.0, 2025-02-20 13:47:14.976
47.0, -677.4997065230273, -850.4364203740843, 12.530534801539034, -45.20417076442391, -0.01600000075995922, 0.0, 1.008000047877431, 0.0, 0.0, 0.0, 0.0, 0.0, 1.7400592349768157E9, 0.0, 2025-02-20 13:47:14.976
48.0, -665.0738889202476, -912.0138731445186, 12.365979203488678, 54.44546355493367, -0.01600000075995922, 0.0, 1.008000047877431, 0.0, 0.0, 0.0, 0.0, 0.0, 1.740059234977605E9, 0.0, 2025-02-20 13:47:14.977
48.0, -755.3475940506905, -978.4606756572612, 11.617999212350696, 36.1274335719645, -0.01600000075995922, 0.0, 1.008000047877431, 0.0, 0.0, 0.0, 0.0, 0.0, 1.7400592349777217E9, 0.0, 2025-02-20 13:47:14.977
49.0, -750.5567822074518, -904.6350505319424, 10.103339730296284, -76.72030769102275, -0.01600000075995922, 0.0, 1.008000047877431, 0.0, 0.0, 0.0, 0.0, 0.0, 1.7400592350063243E9, 0.0, 2025-02-20 13:47:15.006
49.0, -634.7507800795138, -800.6209529642947, 9.88642553286627, -76.7016081912443, -0.01600000075995922, 0.0, 1.008000047877431, 0.0, 0.0, 0.0, 0.0, 0.0, 1.7400592350066803E9, 0.0, 2025-02-20 13:47:15.006
50.0, -549.3258552416228, -817.5701795634814, 9.755529034417123, -8.579330498352647, -0.01600000075995922, 0.0, 1.008000047877431, 0.0, 0.0, 0.0, 0.0, 0.0, 1.7400592350071063E9, 0.0, 2025-02-20 13:47:15.007
50.0, -596.6842083805241, -834.7699794596992, 15.08114657131955, -43.86154668033123, -0.01600000075995922, 0.0, 1.008000047877431, 0.0, 0.0, 0.0, 0.0, 0.0, 1.7400592350072672E9, 0.0, 2025-02-20 13:47:15.007
51.0, -625.0719189941883, -774.710926071275, 5.866033080499619, -120.6117735709995, -0.01600000075995922, 0.0, 1.008000047877431, 0.0, 0.0, 0.0, 0.0, 0.0, 1.7400592350076556E9, 0.0, 2025-02-20 13:47:15.007
51.0, -564.3060245141387, -735.225062339101, 8.476483249571174, -88.41871475242078, -0.01600000075995922, 0.0, 1.008000047877431, 0.0, 0.0, 0.0, 0.0, 0.0, 1.7400592350078168E9, 0.0, 2025-02-20 13:47:15.007
52.0, -564.410741712898, -818.0975054572336, 18.34233933268115, 29.608787949196994, -0.01600000075995922, 0.0, 1.008000047877431, 0.0, 0.0, 0.0, 0.0, 0.0, 1.7400592350663123E9, 0.0, 2025-02-20 13:47:15.066
52.0, -659.4640389867127, -903.2475476483814, 12.059307407122105, 28.408280063420534, -0.01600000075995922, 0.0, 1.008000047877431, 0.0, 0.0, 0.0, 0.0, 0.0, 1.740059235066427E9, 0.0, 2025-02-20 13:47:15.066
53.0, -707.6021612663753, -876.4436846659519, 9.228203140664846, -71.49566745292395, -0.01600000075995922, 0.0, 1.008000047877431, 0.0, 0.0, 0.0, 0.0, 0.0, 1.7400592350667038E9, 0.0, 2025-02-20 13:47:15.066
53.0, -646.5445545897819, -825.2519340724684, 11.88353210920468, -44.93863786756992, -0.01600000075995922, 0.0, 1.008000047877431, 0.0, 0.0, 0.0, 0.0, 0.0, 1.740059235066804E9, 0.0, 2025-02-20 13:47:15.066
54.0, -646.1948739439249, -894.8926111473702, 17.190450146328658, 48.16617152933031, -0.01600000075995922, 0.0, 1.008000047877431, 0.0, 0.0, 0.0, 0.0, 0.0, 1.7400592350673285E9, 0.0, 2025-02-20 13:47:15.067
54.0, -707.5928115164861, -947.479344424326, 14.389265079516917, 42.829334292560816, -0.01600000075995922, 0.0, 1.008000047877431, 0.0, 0.0, 0.0, 0.0, 0.0, 1.740059235067439E9, 0.0, 2025-02-20 13:47:15.067
55.0, -749.0439926753752, -908.6629227842204, 8.008995755109936, -49.269442016258836, -0.01600000075995922, 0.0, 1.008000047877431, 0.0, 0.0, 0.0, 0.0, 0.0, 1.7400592350680609E9, 0.0, 2025-02-20 13:47:15.068
55.0, -696.7863705945201, -871.8174284207635, 13.282254692632705, -32.18557901866734, -0.01600000075995922, 0.0, 1.008000047877431, 0.0, 0.0, 0.0, 0.0, 0.0, 1.740059235068132E9, 0.0, 2025-02-20 13:47:15.068
56.0, -666.9849777976051, -934.984338672366, 14.579999977257103, 58.103085711598396, -0.01600000075995922, 0.0, 1.008000047877431, 0.0, 0.0, 0.0, 0.0, 0.0, 1.7400592350689216E9, 0.0, 2025-02-20 13:47:15.068
56.0, -736.5246775737032, -987.39903655136, 16.412550955545157, 51.0234550954774, -0.01600000075995922, 0.0, 1.008000047877431, 0.0, 0.0, 0.0, 0.0, 0.0, 1.7400592350690775E9, 0.0, 2025-02-20 13:47:15.069
57.0, -769.826616729144, -929.942953532096, 11.0981531185098, -44.20187757629901, -0.01600000075995922, 0.0, 1.008000047877431, 0.0, 0.0, 0.0, 0.0, 0.0, 1.7400592350697181E9, 0.0, 2025-02-20 13:47:15.069
57.0, -698.6638003722765, -893.9800755581819, 14.370565579738468, -29.623747549019754, -0.01600000075995922, 0.0, 1.008000047877431, 0.0, 0.0, 0.0, 0.0, 0.0, 1.740059235069806E9, 0.0, 2025-02-20 13:47:15.069
58.0, -686.223023169674, -953.0517953583039, 16.408811055589467, 61.86542506702244, -0.01600000075995922, 0.0, 1.008000047877431, 0.0, 0.0, 0.0, 0.0, 0.0, 1.7400592350967064E9, 0.0, 2025-02-20 13:47:15.096
58.0, -757.4232385260984, -976.6991827781312, 19.325933021027595, 55.98256243672222, -0.01600000075995922, 0.0, 1.008000047877431, 0.0, 0.0, 0.0, 0.0, 0.0, 1.7400592350969129E9, 0.0, 2025-02-20 13:47:15.096
59.0, -772.0181981031783, -935.8183363624848, 3.506156208459288, -48.053974530659616, -0.01600000075995922, 0.0, 1.008000047877431, 0.0, 0.0, 0.0, 0.0, 0.0, 1.7400592350970669E9, 0.0, 2025-02-20 13:47:15.097
59.0, -704.868294398766, -891.1227919920348, 11.629218912217766, -23.022824127227068, -0.01600000075995922, 0.0, 1.008000047877431, 0.0, 0.0, 0.0, 0.0, 0.0, 1.7400592350971303E9, 0.0, 2025-02-20 13:47:15.097
60.0, -693.5158280832693, -952.0607218700461, 14.939030373003334, 67.15364360436797, -0.01600000075995922, 0.0, 0.9920000471174717, 0.0, 0.0, 0.0, 0.0, 0.0, 1.7400592350980272E9, 0.0, 2025-02-20 13:47:15.098
60.0, -763.9493639487773, -977.7912335651927, 10.914898020680994, 55.82548663858324, -0.01600000075995922, 0.0, 0.9920000471174717, 0.0, 0.0, 0.0, 0.0, 0.0, 1.7400592350982275E9, 0.0, 2025-02-20 13:47:15.098
61.0, -790.5157432840206, -920.4922263440676, 10.712943423073739, -42.6124200951308, -0.01600000075995922, -0.01600000075995922, 0.9920000471174717, 0.0, 0.0, 0.0, 0.0, 0.0, 1.7400592351263237E9, 0.0, 2025-02-20 13:47:15.126
61.0, -753.5954509214498, -894.3129266542383, 13.536567889619619, -29.35073485225439, -0.01600000075995922, -0.01600000075995922, 0.9920000471174717, 0.0, 0.0, 0.0, 0.0, 0.0, 1.7400592351264093E9, 0.0, 2025-02-20 13:47:15.126
62.0, -751.2935424987227, -944.5023840595968, 12.777368198614568, 61.98136196564883, -0.01600000075995922, -0.01600000075995922, 0.9920000471174717, 0.0, 0.0, 0.0, 0.0, 0.0, 1.7400592351266108E9, 0.0, 2025-02-20 13:47:15.126
62.0, -807.130248837173, -964.6754044205882, 12.100446306634694, 46.33736045099795, -0.01600000075995922, -0.01600000075995922, 0.9920000471174717, 0.0, 0.0, 0.0, 0.0, 0.0, 1.7400592351266732E9, 0.0, 2025-02-20 13:47:15.126
63.0, -812.7008298211731, -905.3082325239666, 7.141338965389878, -43.57357438374311, -0.01600000075995922, -0.01600000075995922, 0.9920000471174717, 0.0, 0.0, 0.0, 0.0, 0.0, 1.7400592351275792E9, 0.0, 2025-02-20 13:47:15.127
63.0, -764.4972592922859, -899.1336576971225, 13.689903787802905, -31.231904529966414, -0.01600000075995922, -0.01600000075995922, 0.9920000471174717, 0.0, 0.0, 0.0, 0.0, 0.0, 1.7400592351276932E9, 0.0, 2025-02-20 13:47:15.127
64.0, -734.5948891965672, -946.4209527368657, 13.338353191968054, 52.22770288120955, -0.01600000075995922, -0.01600000075995922, 0.9920000471174717, 0.0, 0.0, 0.0, 0.0, 0.0, 1.740059235156316E9, 0.0, 2025-02-20 13:47:15.156
64.0, -770.9953354652971, -956.4251851183362, 11.47962291399017, 31.43759902752936, -0.01600000075995922, -0.01600000075995922, 0.9920000471174717, 0.0, 0.0, 0.0, 0.0, 0.0, 1.7400592351564329E9, 0.0, 2025-02-20 13:47:15.156
65.0, -779.318482816685, -895.9547427347861, 6.857106568757445, -56.66696412861347, -0.01600000075995922, -0.01600000075995922, 0.9920000471174717, 0.0, 0.0, 0.0, 0.0, 0.0, 1.740059235156635E9, 0.0, 2025-02-20 13:47:15.156
65.0, -730.2809145976789, -890.3037539017387, 11.722716411110014, -43.85032698046416, -0.01600000075995922, -0.01600000075995922, 0.9920000471174717, 0.0, 0.0, 0.0, 0.0, 0.0, 1.7400592351567037E9, 0.0, 2025-02-20 13:47:15.156
66.0, -703.770633761771, -939.0795291238464, 14.628618676681072, 33.49080410320312, -0.01600000075995922, -0.01600000075995922, 0.9920000471174717, 0.0, 0.0, 0.0, 0.0, 0.0, 1.740059235157828E9, 0.0, 2025-02-20 13:47:15.157
66.0, -728.4277941696346, -928.8995214444585, 12.560454001184553, 22.394520934671164, -0.01600000075995922, -0.01600000075995922, 0.9920000471174717, 0.0, 0.0, 0.0, 0.0, 0.0, 1.7400592351578925E9, 0.0, 2025-02-20 13:47:15.157
67.0, -754.1040773154236, -894.5410605515353, 13.48046939028427, -55.90402453765273, -0.01600000075995922, -0.01600000075995922, 0.9920000471174717, 0.0, 0.0, 0.0, 0.0, 0.0, 1.7400592351864774E9, 0.0, 2025-02-20 13:47:15.186
67.0, -729.1065860115923, -889.1331652156077, 13.143878394272178, -40.469457420520484, -0.01600000075995922, -0.01600000075995922, 0.9920000471174717, 0.0, 0.0, 0.0, 0.0, 0.0, 1.7400592351868556E9, 0.0, 2025-02-20 13:47:15.186
68.0, -682.206370617263, -941.1850927988999, 13.86941898567602, 28.95056555699557, -0.01600000075995922, -0.01600000075995922, 0.9920000471174717, 0.0, 0.0, 0.0, 0.0, 0.0, 1.740059235187034E9, 0.0, 2025-02-20 13:47:15.187
68.0, -707.9929808117449, -933.0769896949641, 12.448257002513856, 27.290049976669252, -0.01600000075995922, -0.01600000075995922, 0.9920000471174717, 0.0, 0.0, 0.0, 0.0, 0.0, 1.7400592351871698E9, 0.0, 2025-02-20 13:47:15.187
69.0, -747.0506259989925, -904.3433383353986, 12.238822604995221, -39.684078429825604, -0.01600000075995922, -0.01600000075995922, 0.9920000471174717, 0.0, 0.0, 0.0, 0.0, 0.0, 1.7400592351876209E9, 0.0, 2025-02-20 13:47:15.187
69.0, -728.6839773165993, -907.9523417926393, 11.943370508495718, -30.902793333865702, -0.01600000075995922, -0.01600000075995922, 0.9920000471174717, 0.0, 0.0, 0.0, 0.0, 0.0, 1.7400592351877291E9, 0.0, 2025-02-20 13:47:15.187
70.0, -696.5002682479098, -944.4612451600842, 15.52245476609096, 33.41226620413363, -0.01600000075995922, -0.01600000075995922, 1.008000047877431, 0.0, 0.0, 0.0, 0.0, 0.0, 1.7400592352162988E9, 0.0, 2025-02-20 13:47:15.216
70.0, -715.2708261255175, -944.4949042596854, 13.577706789132208, 29.41057325154543, -0.01600000075995922, -0.01600000075995922, 1.008000047877431, 0.0, 0.0, 0.0, 0.0, 0.0, 1.7400592352163773E9, 0.0, 2025-02-20 13:47:15.216
71.0, -744.0736656342633, -911.007840056438, 8.510142349172384, -27.35362827591598, -0.01600000075995922, -0.01600000075995922, 1.008000047877431, 0.0, 0.0, 0.0, 0.0, 0.0, 1.7400592352166028E9, 0.0, 2025-02-20 13:47:15.216
71.0, -733.5682866587304, -924.9053082917817, 10.896198520902544, -33.80869559943676, -0.01600000075995922, -0.01600000075995922, 1.008000047877431, 0.0, 0.0, 0.0, 0.0, 0.0, 1.7400592352166817E9, 0.0, 2025-02-20 13:47:15.216
72.0, -706.1305106338114, -963.422537935432, 13.551527489442378, 30.315629040822387, -0.01600000075995922, -0.01600000075995922, 1.008000047877431, 0.0, 0.0, 0.0, 0.0, 0.0, 1.7400592352176054E9, 0.0, 2025-02-20 13:47:15.217
72.0, -705.9248161362484, -942.0340500888415, 7.522808760870248, 30.719538236036897, -0.01600000075995922, -0.01600000075995922, 1.008000047877431, 0.0, 0.0, 0.0, 0.0, 0.0, 1.740059235217756E9, 0.0, 2025-02-20 13:47:15.217
73.0, -750.1771823619492, -917.6835614773445, 6.752389369998127, -18.92389377579093, -0.01600000075995922, -0.01600000075995922, 1.008000047877431, 0.0, 0.0, 0.0, 0.0, 0.0, 1.7400592352463417E9, 0.0, 2025-02-20 13:47:15.246
73.0, -730.3968514963053, -928.4282940500416, 12.956883396487683, -29.081462055444717, -0.01600000075995922, -0.01600000075995922, 1.008000047877431, 0.0, 0.0, 0.0, 0.0, 0.0, 1.7400592352465672E9, 0.0, 2025-02-20 13:47:15.246
74.0, -706.3137657316402, -962.6259392448701, 15.264401669148356, 23.075182726606727, -0.01600000075995922, -0.01600000075995922, 1.008000047877431, 0.0, 0.0, 0.0, 0.0, 0.0, 1.7400592352468443E9, 0.0, 2025-02-20 13:47:15.246
74.0, -707.630210516043, -931.1210220181383, 9.583493636455387, 33.09437470789999, -0.01600000075995922, -0.01600000075995922, 1.008000047877431, 0.0, 0.0, 0.0, 0.0, 0.0, 1.740059235246981E9, 0.0, 2025-02-20 13:47:15.246
75.0, -746.5906183044426, -908.2926726886071, 11.689057311508805, -20.303916859440506, -0.01600000075995922, -0.01600000075995922, 1.008000047877431, 0.0, 0.0, 0.0, 0.0, 0.0, 1.740059235247584E9, 0.0, 2025-02-20 13:47:15.247
75.0, -745.8276787134819, -931.764284810517, 6.527995372656733, -34.17146589513868, -0.01600000075995922, -0.01600000075995922, 1.008000047877431, 0.0, 0.0, 0.0, 0.0, 0.0, 1.7400592352476838E9, 0.0, 2025-02-20 13:47:15.247
76.0, -698.3664783257991, -962.2743886490352, 16.090919559355825, 23.651127319782972, -0.01600000075995922, -0.01600000075995922, 1.008000047877431, 0.0, 0.0, 0.0, 0.0, 0.0, 1.7400592352763453E9, 0.0, 2025-02-20 13:47:15.276
76.0, -704.6345506515354, -934.9805987724103, 13.977876084391028, 37.03996916115284, -0.01600000075995922, -0.01600000075995922, 1.008000047877431, 0.0, 0.0, 0.0, 0.0, 0.0, 1.740059235276467E9, 0.0, 2025-02-20 13:47:15.276
77.0, -740.6479172748514, -912.5748581378721, 8.450303949881345, -13.70673333760351, -0.01600000075995922, -0.01600000075995922, 1.008000047877431, 0.0, 0.0, 0.0, 0.0, 0.0, 1.740059235276731E9, 0.0, 2025-02-20 13:47:15.276
77.0, -752.0807914393954, -951.02476958232, 14.460323178675026, -26.15312039013952, -0.01600000075995922, -0.01600000075995922, 1.008000047877431, 0.0, 0.0, 0.0, 0.0, 0.0, 1.7400592352768345E9, 0.0, 2025-02-20 13:47:15.276
78.0, -710.7530269790441, -970.9546964461915, 19.49422851903364, 25.670673295855522, -0.01600000075995922, -0.01600000075995922, 1.008000047877431, 0.0, 0.0, 0.0, 0.0, 0.0, 1.7400592352776904E9, 0.0, 2025-02-20 13:47:15.277
78.0, -689.443077031523, -938.3240693327971, 12.059307407122105, 39.30634853430092, -0.01600000075995922, -0.01600000075995922, 1.008000047877431, 0.0, 0.0, 0.0, 0.0, 0.0, 1.7400592352778168E9, 0.0, 2025-02-20 13:47:15.277
79.0, -734.8211531438865, -904.893103628885, 9.508695637341589, -7.670534809119999, -0.01600000075995922, -0.01600000075995922, 1.008000047877431, 0.0, 0.0, 0.0, 0.0, 0.0, 1.740059235306224E9, 0.0, 2025-02-20 13:47:15.306
79.0, -744.9525421238504, -947.7149581215344, 10.63814542395994, -15.337329718284309, -0.01600000075995922, -0.01600000075995922, 1.008000047877431, 0.0, 0.0, 0.0, 0.0, 0.0, 1.7400592353063543E9, 0.0, 2025-02-20 13:47:15.306
80.0, -701.6800296865404, -974.4215837051161, 11.8760523092933, 30.23335124179721, -0.01600000075995922, -0.01600000075995922, 1.008000047877431, 0.0, 0.0, 0.0, 0.0, 0.0, 1.7400592353069968E9, 0.0, 2025-02-20 13:47:15.306
80.0, -698.246801527217, -928.1253621536307, 11.367425915319473, 44.28415537532419, -0.01600000075995922, -0.01600000075995922, 1.008000047877431, 0.0, 0.0, 0.0, 0.0, 0.0, 1.7400592353070874E9, 0.0, 2025-02-20 13:47:15.307
81.0, -733.8039003559388, -894.4961817520671, 6.284901875536889, -7.199307414703071, -0.01600000075995922, -0.01600000075995922, 1.008000047877431, 0.0, 0.0, 0.0, 0.0, 0.0, 1.7400592353080716E9, 0.0, 2025-02-20 13:47:15.308
81.0, -747.3385982955806, -956.3728265189566, 9.994882631581277, -17.102562497369945, -0.01600000075995922, -0.01600000075995922, 1.008000047877431, 0.0, 0.0, 0.0, 0.0, 0.0, 1.740059235308261E9, 0.0, 2025-02-20 13:47:15.308
82.0, -712.0171131640673, -975.917543687392, 16.966056148987263, 27.054436279460788, -0.01600000075995922, -0.01600000075995922, 1.008000047877431, 0.0, 0.0, 0.0, 0.0, 0.0, 1.7400592353365717E9, 0.0, 2025-02-20 13:47:15.336
82.0, -708.1238773101941, -929.628801935818, 10.959776820149273, 40.15904572419822, -0.01600000075995922, -0.01600000075995922, 1.008000047877431, 0.0, 0.0, 0.0, 0.0, 0.0, 1.7400592353366468E9, 0.0, 2025-02-20 13:47:15.336
83.0, -741.0032077706419, -903.6177977439947, 8.906571744475514, -5.142362439073622, -0.01600000075995922, -0.01600000075995922, 1.008000047877431, 0.0, 0.0, 0.0, 0.0, 0.0, 1.74005923533687E9, 0.0, 2025-02-20 13:47:15.336
83.0, -743.9128499361686, -952.580567963887, 13.570226989220828, -16.04043090995401, -0.01600000075995922, -0.01600000075995922, 1.008000047877431, 0.0, 0.0, 0.0, 0.0, 0.0, 1.7400592353369887E9, 0.0, 2025-02-20 13:47:15.336
84.0, -714.9566745292395, -988.9623147328384, 19.52788761863485, 22.92932662833482, -0.01600000075995922, -0.01600000075995922, 1.008000047877431, 0.0, 0.0, 0.0, 0.0, 0.0, 1.7400592353379853E9, 0.0, 2025-02-20 13:47:15.337
84.0, -697.5848392350599, -926.6929804706015, 12.567933801095933, 37.71315115317702, -0.01600000075995922, -0.01600000075995922, 1.008000047877431, 0.0, 0.0, 0.0, 0.0, 0.0, 1.74005923533809E9, 0.0, 2025-02-20 13:47:15.338
85.0, -729.0205683126114, -899.152357196901, 10.065940730739385, -10.138868779875338, -0.01600000075995922, -0.01600000075995922, 1.008000047877431, 0.0, 0.0, 0.0, 0.0, 0.0, 1.7400592353662453E9, 0.0, 2025-02-20 13:47:15.366
85.0, -758.9061088585295, -954.4205987420864, 11.07197381881997, -26.826302382163703, -0.01600000075995922, -0.01600000075995922, 1.008000047877431, 0.0, 0.0, 0.0, 0.0, 0.0, 1.7400592353663557E9, 0.0, 2025-02-20 13:47:15.366
86.0, -726.6775209903717, -988.6369434366934, 13.06908039515838, 19.76911116577685, -0.01600000075995922, -0.01600000075995922, 1.008000047877431, 0.0, 0.0, 0.0, 0.0, 0.0, 1.7400592353666258E9, 0.0, 2025-02-20 13:47:15.366
86.0, -694.8322728676721, -925.7654852815904, 11.573120412882417, 34.2387840943411, -0.01600000075995922, -0.01600000075995922, 1.008000047877431, 0.0, 0.0, 0.0, 0.0, 0.0, 1.740059235366732E9, 0.0, 2025-02-20 13:47:15.366
87.0, -742.9367360477336, -901.1569435731508, 11.49458251381293, -13.26916504278779, -0.01600000075995922, -0.01600000075995922, 1.008000047877431, 0.0, 0.0, 0.0, 0.0, 0.0, 1.7400592353678224E9, 0.0, 2025-02-20 13:47:15.367
87.0, -756.7481865840964, -978.8421454527415, 13.962916484568268, -19.559676768258214, -0.01600000075995922, -0.01600000075995922, 1.008000047877431, 0.0, 0.0, 0.0, 0.0, 0.0, 1.7400592353678844E9, 0.0, 2025-02-20 13:47:15.367
88.0, -718.0645313924178, -996.9096021386795, 12.64647170016542, 25.057329703122377, -0.01600000075995922, -0.01600000075995922, 1.008000047877431, 0.0, 0.0, 0.0, 0.0, 0.0, 1.7400592353962371E9, 0.0, 2025-02-20 13:47:15.396
88.0, -701.8632847843692, -955.3144348314963, 7.526548660825938, 37.997383549809456, -0.01600000075995922, -0.01600000075995922, 1.008000047877431, 0.0, 0.0, 0.0, 0.0, 0.0, 1.740059235396387E9, 0.0, 2025-02-20 13:47:15.396
89.0, -729.3197603090666, -945.3962201490067, 6.9842631672509015, -8.321277401410043, -0.01600000075995922, -0.01600000075995922, 1.008000047877431, 0.0, 0.0, 0.0, 0.0, 0.0, 1.7400592353967462E9, 0.0, 2025-02-20 13:47:15.396
89.0, -741.5903720636852, -1026.0097636939026, 10.417491326574236, -12.427687552757561, -0.01600000075995922, -0.01600000075995922, 1.008000047877431, 0.0, 0.0, 0.0, 0.0, 0.0, 1.7400592353968596E9, 0.0, 2025-02-20 13:47:15.396
90.0, -711.4000296713784, -1085.6536881872453, 18.211442834232002, 38.053482049144804, -0.01600000075995922, -0.01600000075995922, 1.008000047877431, 0.0, 0.0, 0.0, 0.0, 0.0, 1.74005923539757E9, 0.0, 2025-02-20 13:47:15.397
90.0, -673.294189022854, -1009.3821684909053, 12.526794901583344, 55.50385524239391, -0.01600000075995922, -0.01600000075995922, 1.008000047877431, 0.0, 0.0, 0.0, 0.0, 0.0, 1.740059235397668E9, 0.0, 2025-02-20 13:47:15.397
91.0, -702.8038696232252, -987.3952966514044, 8.872912644874305, 7.326464013196528, -0.01600000075995922, -0.01600000075995922, 1.008000047877431, 0.0, 0.0, 0.0, 0.0, 0.0, 1.740059235426218E9, 0.0, 2025-02-20 13:47:15.426
91.0, -746.9010300007649, -1075.5709179067053, 13.027941495645791, -2.01206617616117, -0.01600000075995922, -0.01600000075995922, 1.008000047877431, 0.0, 0.0, 0.0, 0.0, 0.0, 1.7400592354263513E9, 0.0, 2025-02-20 13:47:15.426
92.0, -702.3943505780771, -1117.6672318079509, 12.171504405792803, 46.498176149092615, 0.0, -0.01600000075995922, 1.008000047877431, 0.0, 0.0, 0.0, 0.0, 0.0, 1.7400592354267204E9, 0.0, 2025-02-20 13:47:15.426
92.0, -665.4890178153291, -1038.1083400505595, 7.9902962553314865, 56.82777982670814, 0.0, -0.01600000075995922, 1.008000047877431, 0.0, 0.0, 0.0, 0.0, 0.0, 1.740059235426782E9, 0.0, 2025-02-20 13:47:15.426
93.0, -686.6138427150436, -1003.5217452603392, 8.771935346070677, 7.64061560947448, 0.0, -0.01600000075995922, 1.008000047877431, 0.0, 0.0, 0.0, 0.0, 0.0, 1.7400592354282968E9, 0.0, 2025-02-20 13:47:15.428
93.0, -759.1604220555164, -1100.5123107112013, 11.569380512926728, -2.1467025745660067, 0.0, -0.01600000075995922, 1.008000047877431, 0.0, 0.0, 0.0, 0.0, 0.0, 1.740059235428512E9, 0.0, 2025-02-20 13:47:15.428
94.0, -712.2078480618075, -1139.844838545192, 13.637545188423246, 47.09282024204731, 0.0, -0.01600000075995922, 1.008000047877431, 0.0, 0.0, 0.0, 0.0, 0.0, 1.7400592354565237E9, 0.0, 2025-02-20 13:47:15.456
94.0, -653.8728885529563, -1030.5574820400216, 13.170057693962008, 59.53546739462763, 0.0, -0.01600000075995922, 1.008000047877431, 0.0, 0.0, 0.0, 0.0, 0.0, 1.7400592354567025E9, 0.0, 2025-02-20 13:47:15.456
95.0, -687.1673479084857, -1002.9046617676504, 6.946864167694002, 11.713366661220789, 0.0, -0.01600000075995922, 1.008000047877431, 0.0, 0.0, 0.0, 0.0, 0.0, 1.7400592354568198E9, 0.0, 2025-02-20 13:47:15.456
95.0, -732.5136348712258, -1102.348601589445, 13.061600595247, 0.4300884949043393, 0.0, -0.01600000075995922, 1.008000047877431, 0.0, 0.0, 0.0, 0.0, 0.0, 1.7400592354569097E9, 0.0, 2025-02-20 13:47:15.456
96.0, -692.9024844905362, -1134.7884938050993, 14.097552882973105, 45.16677176486701, 0.0, -0.01600000075995922, 1.008000047877431, 0.0, 0.0, 0.0, 0.0, 0.0, 1.7400592354577181E9, 0.0, 2025-02-20 13:47:15.457
96.0, -643.4161282768473, -1032.711664414499, 9.46381683787331, 58.566833306103945, 0.0, -0.01600000075995922, 1.008000047877431, 0.0, 0.0, 0.0, 0.0, 0.0, 1.7400592354578273E9, 0.0, 2025-02-20 13:47:15.457
97.0, -676.3029385372065, -996.6178899421357, 9.48999613756314, 7.614436309784651, 0.0, -0.01600000075995922, 1.008000047877431, 0.0, 0.0, 0.0, 0.0, 0.0, 1.740059235486296E9, 0.0, 2025-02-20 13:47:15.486
97.0, -736.9828153182752, -1098.055196440313, 13.51038858992979, -3.4743670588359237, 0.0, -0.01600000075995922, 1.008000047877431, 0.0, 0.0, 0.0, 0.0, 0.0, 1.7400592354864738E9, 0.0, 2025-02-20 13:47:15.486
98.0, -707.8246853137389, -1119.7353964834474, 16.75662175146863, 47.8744593327865, 0.0, -0.01600000075995922, 1.008000047877431, 0.0, 0.0, 0.0, 0.0, 0.0, 1.7400592354866552E9, 0.0, 2025-02-20 13:47:15.486
98.0, -630.1357435341924, -1013.7241923394613, 12.852166197728366, 47.242416240274906, 0.0, -0.01600000075995922, 1.008000047877431, 0.0, 0.0, 0.0, 0.0, 0.0, 1.740059235486725E9, 0.0, 2025-02-20 13:47:15.486
99.0, -665.1916957688518, -981.4787749215029, 9.789188134018332, -0.35529049579054117, 0.0, -0.01600000075995922, 1.008000047877431, 0.0, 0.0, 0.0, 0.0, 0.0, 1.74005923548786E9, 0.0, 2025-02-20 13:47:15.487
99.0, -728.9607299133204, -1093.3092633965425, 11.606779512483627, -11.567510562948883, 0.0, -0.01600000075995922, 1.008000047877431, 0.0, 0.0, 0.0, 0.0, 0.0, 1.740059235488014E9, 0.0, 2025-02-20 13:47:15.488
100.0, -711.7291408674791, -1125.831433411222, 15.342939568217844, 42.37680639792234, 0.0, -0.01600000075995922, 0.9920000471174717, 0.0, 0.0, 0.0, 0.0, 0.0, 1.7400592355163877E9, 0.0, 2025-02-20 13:47:15.516
100.0, -638.4158820360899, -1007.4224609141238, 10.918637920636684, 42.885432791896164, 0.0, -0.01600000075995922, 0.9920000471174717, 0.0, 0.0, 0.0, 0.0, 0.0, 1.7400592355164635E9, 0.0, 2025-02-20 13:47:15.516
0.0, 316.1113038547337, 9.985532881692052, 8.24086955236271, -18.49380528088659, 0.0, -0.01600000075995922, 0.9920000471174717, 0.0, 0.0, 0.0, 0.0, 0.0, 1.740059235516687E9, 0.0, 2025-02-20 13:47:15.516
1.0, 250.44240053277463, -108.0120506202802, 10.380092327017337, -22.98168522771448, 0.0, -0.01600000075995922, 0.9920000471174717, 0.0, 0.0, 0.0, 0.0, 0.0, 1.7400592355173693E9, 0.0, 2025-02-20 13:47:15.517
1.0, 266.249087695498, -140.7660944322124, 13.031681395601481, 21.448326245881617, 0.0, -0.01600000075995922, 0.9920000471174717, 0.0, 0.0, 0.0, 0.0, 0.0, 1.7400592355174313E9, 0.0, 2025-02-20 13:47:15.517
2.0, 351.16351618943736, -9.895775282755494, 6.64767217123881, 25.77165059465915, -0.01600000075995922, -0.01600000075995922, 0.9920000471174717, 0.0, 0.0, 0.0, 0.0, 0.0, 1.7400592355182436E9, 0.0, 2025-02-20 13:47:15.518
2.0, 324.57469745445997, 17.36809539422393, 12.65021160012111, -28.14274716656655, -0.01600000075995922, -0.01600000075995922, 0.9920000471174717, 0.0, 0.0, 0.0, 0.0, 0.0, 1.7400592355184057E9, 0.0, 2025-02-20 13:47:15.518
3.0, 244.92230819817632, -99.21954582445323, 11.565640612971038, -40.51059632003307, -0.01600000075995922, -0.01600000075995922, 0.9920000471174717, 0.0, 0.0, 0.0, 0.0, 0.0, 1.740059235546431E9, 0.0, 2025-02-20 13:47:15.546
3.0, 279.1106036431156, -115.62274703010917, 14.179830681998283, -8.493312799371779, -0.01600000075995922, -0.01600000075995922, 0.9920000471174717, 0.0, 0.0, 0.0, 0.0, 0.0, 1.7400592355466163E9, 0.0, 2025-02-20 13:47:15.546
4.0, 378.73031876282766, 12.46134665235877, 9.325440539512783, 10.707333573140204, -0.01600000075995922, -0.01600000075995922, 0.9920000471174717, 0.0, 0.0, 0.0, 0.0, 0.0, 1.7400592355472877E9, 0.0, 2025-02-20 13:47:15.547
4.0, 323.452727467753, 42.21225079987198, 12.425817602779716, -21.844755641184747, -0.01600000075995922, -0.01600000075995922, 0.9920000471174717, 0.0, 0.0, 0.0, 0.0, 0.0, 1.740059235547407E9, 0.0, 2025-02-20 13:47:15.547
5.0, 230.68450906686485, -102.46203908603638, 18.189003434497863, -32.06590222008526, -0.01600000075995922, -0.01600000075995922, 0.9920000471174717, 0.0, 0.0, 0.0, 0.0, 0.0, 1.74005923557626E9, 0.0, 2025-02-20 13:47:15.576
5.0, 280.7150207241066, -115.57038843072951, 10.67180452356115, -9.67886108532548, -0.01600000075995922, -0.01600000075995922, 0.9920000471174717, 0.0, 0.0, 0.0, 0.0, 0.0, 1.7400592355763924E9, 0.0, 2025-02-20 13:47:15.576
6.0, 388.4203995480202, 35.83572137542069, 8.66721814731136, 10.348303177393973, -0.01600000075995922, -0.01600000075995922, 0.9920000471174717, 0.0, 0.0, 0.0, 0.0, 0.0, 1.7400592355767317E9, 0.0, 2025-02-20 13:47:15.576
6.0, 332.8697955561802, 45.07701416593045, 11.666617911774665, -12.87273564748466, -0.01600000075995922, -0.01600000075995922, 0.9920000471174717, 0.0, 0.0, 0.0, 0.0, 0.0, 1.7400592355768964E9, 0.0, 2025-02-20 13:47:15.576
7.0, 219.70790269691497, -100.20687941275537, 12.833466697949916, -25.842708693817258, -0.01600000075995922, -0.01600000075995922, 0.9920000471174717, 0.0, 0.0, 0.0, 0.0, 0.0, 1.7400592355772762E9, 0.0, 2025-02-20 13:47:15.577
7.0, 266.0620926977135, -111.17226608283818, 15.619692164938897, -0.1645555980503559, -0.01600000075995922, -0.01600000075995922, 0.9920000471174717, 0.0, 0.0, 0.0, 0.0, 0.0, 1.7400592355773883E9, 0.0, 2025-02-20 13:47:15.577
8.0, 378.77893746225163, 32.33891491685063, 7.156298565212637, 12.543624451383948, -0.01600000075995922, -0.01600000075995922, 0.9920000471174717, 0.0, 0.0, 0.0, 0.0, 0.0, 1.7400592355782437E9, 0.0, 2025-02-20 13:47:15.578
8.0, 311.6645628074184, 24.139184264000505, 13.012981895823032, -4.110150051303208, -0.01600000075995922, -0.01600000075995922, 0.9920000471174717, 0.0, 0.0, 0.0, 0.0, 0.0, 1.7400592355783625E9, 0.0, 2025-02-20 13:47:15.578
9.0, 225.0372601337731, -108.06627916963771, 14.093812983017415, -20.393674458377063, -0.01600000075995922, -0.01600000075995922, 0.9920000471174717, 0.0, 0.0, 0.0, 0.0, 0.0, 1.7400592356064315E9, 0.0, 2025-02-20 13:47:15.606
9.0, 258.0250476929359, -120.30697172461078, 17.194190046284348, 12.225732955150306, -0.01600000075995922, -0.01600000075995922, 0.9920000471174717, 0.0, 0.0, 0.0, 0.0, 0.0, 1.740059235606654E9, 0.0, 2025-02-20 13:47:15.606
10.0, 365.9772599139251, 6.064247778151184, 13.364532491657883, 41.56524810753763, -0.01600000075995922, -0.01600000075995922, 0.9920000471174717, 0.0, 0.0, 0.0, 0.0, 0.0, 1.7400592356069396E9, 0.0, 2025-02-20 13:47:15.606
10.0, 319.94844120927155, 15.283101168926805, 13.308433992322534, -2.217760673724115, -0.01600000075995922, -0.01600000075995922, 0.9920000471174717, 0.0, 0.0, 0.0, 0.0, 0.0, 1.740059235607044E9, 0.0, 2025-02-20 13:47:15.607
11.0, 218.41763721220195, -124.99306636909023, 14.856752573978156, -13.003632145933807, -0.01600000075995922, -0.01600000075995922, 0.9920000471174717, 0.0, 0.0, 0.0, 0.0, 0.0, 1.7400592356365762E9, 0.0, 2025-02-20 13:47:15.636
11.0, 247.8039011140354, -152.73564424039796, 12.003208907786757, 40.095467424951494, -0.01600000075995922, -0.01600000075995922, 0.9920000471174717, 0.0, 0.0, 0.0, 0.0, 0.0, 1.7400592356367767E9, 0.0, 2025-02-20 13:47:15.636
12.0, 374.5603303122334, -0.2786225466988981, 9.897645232733339, 35.44677178002894, 0.0, -0.01600000075995922, 0.9920000471174717, 0.0, 0.0, 0.0, 0.0, 0.0, 1.740059235637026E9, 0.0, 2025-02-20 13:47:15.637
12.0, 334.5303111365065, 31.888256972189993, 13.592666388954967, -26.007264291867614, 0.0, -0.01600000075995922, 0.9920000471174717, 0.0, 0.0, 0.0, 0.0, 0.0, 1.7400592356373E9, 0.0, 2025-02-20 13:47:15.637
13.0, 212.11216588690877, -130.58795670280233, 14.867972273845226, -18.49380528088659, 0.0, -0.01600000075995922, 0.9920000471174717, 0.0, 0.0, 0.0, 0.0, 0.0, 1.7400592356374133E9, 0.0, 2025-02-20 13:47:15.637
13.0, 243.37211966654286, -151.55383585439995, 13.555267389398068, 40.58913421910256, 0.0, -0.01600000075995922, 0.9920000471174717, 0.0, 0.0, 0.0, 0.0, 0.0, 1.7400592356374812E9, 0.0, 2025-02-20 13:47:15.637
14.0, 361.0518116722815, 15.50001536635682, 8.749495946336538, 19.234305472113192, 0.0, -0.01600000075995922, 0.9920000471174717, 0.0, 0.0, 0.0, 0.0, 0.0, 1.7400592356382377E9, 0.0, 2025-02-20 13:47:15.638
14.0, 331.14570167660713, 51.492812539916486, 9.321700639557093, -41.0940207131207, 0.0, -0.01600000075995922, 0.9920000471174717, 0.0, 0.0, 0.0, 0.0, 0.0, 1.7400592356383092E9, 0.0, 2025-02-20 13:47:15.638
15.0, 214.72635595593601, -124.61533647356555, 9.340400139335543, -19.892527864314616, 0.0, -0.01600000075995922, 0.9920000471174717, 0.0, 0.0, 0.0, 0.0, 0.0, 1.7400592356663E9, 0.0, 2025-02-20 13:47:15.666
15.0, 236.69639824563637, -155.26007671048865, 13.753482087049633, 44.904978767968714, 0.0, -0.01600000075995922, 0.9920000471174717, 0.0, 0.0, 0.0, 0.0, 0.0, 1.7400592356663804E9, 0.0, 2025-02-20 13:47:15.666
16.0, 361.0144126727246, 16.921177349518985, 7.822000757325441, 15.991812210530043, 0.0, -0.01600000075995922, 0.9920000471174717, 0.0, 0.0, 0.0, 0.0, 0.0, 1.740059235666934E9, 0.0, 2025-02-20 13:47:15.666
16.0, 339.11168858222663, 57.517791368532926, 9.44137743813917, -49.9127048086375, 0.0, -0.01600000075995922, 0.9920000471174717, 0.0, 0.0, 0.0, 0.0, 0.0, 1.7400592356670017E9, 0.0, 2025-02-20 13:47:15.667
17.0, 213.55576726980507, -123.85987668251619, 12.534274701494724, -21.870934940874577, 0.0, -0.01600000075995922, 0.9920000471174717, 0.0, 0.0, 0.0, 0.0, 0.0, 1.7400592356962683E9, 0.0, 2025-02-20 13:47:15.696
17.0, 222.4249400147237, -150.2411309699528, 12.175244305748492, 39.56440163124353, 0.0, -0.01600000075995922, 0.9920000471174717, 0.0, 0.0, 0.0, 0.0, 0.0, 1.7400592356964176E9, 0.0, 2025-02-20 13:47:15.696
18.0, 366.2390529108234, 33.58243165211752, 12.145325106102973, 8.182901103049517, 0.0, -0.01600000075995922, 0.9920000471174717, 0.0, 0.0, 0.0, 0.0, 0.0, 1.7400592356967425E9, 0.0, 2025-02-20 13:47:15.696
18.0, 347.62744078133255, 60.764024530071765, 12.130365506280214, -48.484063025563955, 0.0, -0.01600000075995922, 0.9920000471174717, 0.0, 0.0, 0.0, 0.0, 0.0, 1.7400592356968184E9, 0.0, 2025-02-20 13:47:15.696
19.0, 217.05257372837514, -113.59385130414739, 15.387818367686123, -12.89891494717449, 0.0, -0.01600000075995922, 0.9920000471174717, 0.0, 0.0, 0.0, 0.0, 0.0, 1.7400592356974323E9, 0.0, 2025-02-20 13:47:15.697
19.0, 228.7229315401055, -151.59123485395685, 14.422924179118127, 46.094266953878105, 0.0, -0.01600000075995922, 0.9920000471174717, 0.0, 0.0, 0.0, 0.0, 0.0, 1.7400592356977034E9, 0.0, 2025-02-20 13:47:15.697
20.0, 371.5347512480803, 44.660015320871025, 7.799561357591301, 16.728572501800954, 0.0, -0.01600000075995922, 0.9920000471174717, 0.0, 0.0, 0.0, 0.0, 0.0, 1.7400592356983616E9, 0.0, 2025-02-20 13:47:15.698
20.0, 359.96163083519787, 72.32779519306496, 9.953743732068688, -56.45378983113915, 0.0, -0.01600000075995922, 0.9920000471174717, 0.0, 0.0, 0.0, 0.0, 0.0, 1.7400592356984525E9, 0.0, 2025-02-20 13:47:15.698
21.0, 215.3583990484476, -122.68554809642956, 9.018768743146211, -22.383301234804094, 0.0, -0.01600000075995922, 0.9920000471174717, 0.0, 0.0, 0.0, 0.0, 0.0, 1.740059235726292E9, 0.0, 2025-02-20 13:47:15.726
21.0, 254.93215042958036, -158.3118350743316, 10.780261622276157, 47.58274713624269, 0.0, -0.01600000075995922, 0.9920000471174717, 0.0, 0.0, 0.0, 0.0, 0.0, 1.740059235726368E9, 0.0, 2025-02-20 13:47:15.726
22.0, 393.8282948839478, 56.26118498342112, 8.22590995253995, 11.492712563835084, 0.0, -0.01600000075995922, 0.9920000471174717, 0.0, 0.0, 0.0, 0.0, 0.0, 1.7400592357271335E9, 0.0, 2025-02-20 13:47:15.727
22.0, 398.04690203396603, 70.83557511074468, 11.748895710799843, -65.90077711921185, 0.0, -0.01600000075995922, 0.9920000471174717, 0.0, 0.0, 0.0, 0.0, 0.0, 1.7400592357274692E9, 0.0, 2025-02-20 13:47:15.727
23.0, 239.28814891492948, -136.1566677368246, 13.035421295557171, -22.790950329974294, 0.0, -0.01600000075995922, 0.9920000471174717, 0.0, 0.0, 0.0, 0.0, 0.0, 1.7400592357563121E9, 0.0, 2025-02-20 13:47:15.756
23.0, 228.6406537410803, -152.58604824217036, 16.053520559798926, 48.58130042441189, 0.0, -0.01600000075995922, 0.9920000471174717, 0.0, 0.0, 0.0, 0.0, 0.0, 1.7400592357564583E9, 0.0, 2025-02-20 13:47:15.756
24.0, 374.76976470975205, 68.14658704260364, 10.772781822364777, 7.562077710404992, 0.0, -0.01600000075995922, 0.9920000471174717, 0.0, 0.0, 0.0, 0.0, 0.0, 1.740059235756996E9, 0.0, 2025-02-20 13:47:15.756
24.0, 317.2257940415293, 93.37969204364344, 9.284301640000194, -39.78879562858492, 0.0, -0.01600000075995922, 0.9920000471174717, 0.0, 0.0, 0.0, 0.0, 0.0, 1.740059235757338E9, 0.0, 2025-02-20 13:47:15.757
25.0, 160.1836550021544, -112.63643691549078, 13.835759886074811, -0.38894959539175034, 0.0, -0.01600000075995922, 0.9920000471174717, 0.0, 0.0, 0.0, 0.0, 0.0, 1.7400592357574954E9, 0.0, 2025-02-20 13:47:15.757
25.0, 196.93752181669697, -159.14209286449477, 14.67349747614935, 80.31809144839644, 0.0, -0.01600000075995922, 0.9920000471174717, 0.0, 0.0, 0.0, 0.0, 0.0, 1.7400592357576249E9, 0.0, 2025-02-20 13:47:15.757
26.0, 397.85616713622585, 75.14019995974377, 8.981369743589312, 35.244817182421684, 0.0, -0.01600000075995922, 0.9920000471174717, 0.0, 0.0, 0.0, 0.0, 0.0, 1.7400592357583027E9, 0.0, 2025-02-20 13:47:15.758
26.0, 331.3102572746575, 100.16761046322063, 8.25956905214116, -32.30899571720511, 0.0, -0.01600000075995922, 0.9920000471174717, 0.0, 0.0, 0.0, 0.0, 0.0, 1.7400592357583945E9, 0.0, 2025-02-20 13:47:15.758
27.0, 153.37703708279878, -100.96420915378258, 12.885825297329575, 14.151781432330608, 0.0, -0.01600000075995922, 0.9920000471174717, 0.0, 0.0, 0.0, 0.0, 0.0, 1.740059235786368E9, 0.0, 2025-02-20 13:47:15.786
27.0, 176.33815286075696, -101.8094265437685, 10.727903022896498, 76.32761819567531, 0.0, -0.01600000075995922, 0.9920000471174717, 0.0, 0.0, 0.0, 0.0, 0.0, 1.7400592357865088E9, 0.0, 2025-02-20 13:47:15.786
28.0, 339.04998023295775, 117.61798365646973, 12.014428607653826, 36.4976836675778, 0.0, -0.01600000075995922, 0.9920000471174717, 0.0, 0.0, 0.0, 0.0, 0.0, 1.7400592357869265E9, 0.0, 2025-02-20 13:47:15.786
28.0, 299.633304649964, 137.77604441763833, 9.145925341639668, -29.949118845164776, 0.0, -0.01600000075995922, 0.9920000471174717, 0.0, 0.0, 0.0, 0.0, 0.0, 1.740059235787035E9, 0.0, 2025-02-20 13:47:15.787
29.0, 136.76066157966852, -70.56256241397932, 10.911158120725304, 14.421054229140282, 0.0, -0.01600000075995922, 0.9920000471174717, 0.0, 0.0, 0.0, 0.0, 0.0, 1.7400592358164237E9, 0.0, 2025-02-20 13:47:15.816
29.0, 169.15006514592096, -91.20307026943192, 15.346679468173534, 79.16246236208826, 0.0, -0.01600000075995922, 0.9920000471174717, 0.0, 0.0, 0.0, 0.0, 0.0, 1.7400592358166752E9, 0.0, 2025-02-20 13:47:15.816
30.0, 338.16362394345924, 133.0450709736906, 11.49458251381293, 27.30126967653632, 0.0, -0.01600000075995922, 0.9920000471174717, 0.0, 0.0, 0.0, 0.0, 0.0, 1.7400592358167722E9, 0.0, 2025-02-20 13:47:15.816
30.0, 297.8381526712328, 153.6444399296306, 10.402531726751477, -40.60783371888101, 0.0, -0.01600000075995922, 0.9920000471174717, 0.0, 0.0, 0.0, 0.0, 0.0, 1.7400592358169053E9, 0.0, 2025-02-20 13:47:15.816
31.0, 116.34828762151301, -87.354713215027, 10.529688325244933, 5.669688332825899, 0.0, -0.01600000075995922, 0.9920000471174717, 0.0, 0.0, 0.0, 0.0, 0.0, 1.7400592358173184E9, 0.0, 2025-02-20 13:47:15.817
31.0, 167.35117326723412, -105.79615989653394, 10.2454559286125, 68.50374748837203, 0.0, -0.01600000075995922, 0.9920000471174717, 0.0, 0.0, 0.0, 0.0, 0.0, 1.7400592358174253E9, 0.0, 2025-02-20 13:47:15.817
32.0, 315.7653631088324, 122.06472470378503, 9.396498638670892, 22.48427853360772, 0.0, -0.01600000075995922, 0.9920000471174717, 0.0, 0.0, 0.0, 0.0, 0.0, 1.740059235818174E9, 0.0, 2025-02-20 13:47:15.818
32.0, 298.3692184649408, 154.58315481850877, 8.076313954312354, -39.06325503718108, 0.0, -0.01600000075995922, 0.9920000471174717, 0.0, 0.0, 0.0, 0.0, 0.0, 1.7400592358182876E9, 0.0, 2025-02-20 13:47:15.818
33.0, 130.33551345579326, -74.28002296993509, 11.85735280951485, -2.214020773768425, 0.0, -0.01600000075995922, 0.9920000471174717, 0.0, 0.0, 0.0, 0.0, 0.0, 1.740059235846338E9, 0.0, 2025-02-20 13:47:15.846
33.0, 170.42537103081122, -97.65065779304132, 13.364532491657883, 70.38117726612836, 0.0, -0.01600000075995922, 0.9920000471174717, 0.0, 0.0, 0.0, 0.0, 0.0, 1.7400592358464491E9, 0.0, 2025-02-20 13:47:15.846
34.0, 362.91054195025936, 142.81368965795264, 7.560207760427147, 20.96213925164193, 0.0, -0.01600000075995922, 0.9920000471174717, 0.0, 0.0, 0.0, 0.0, 0.0, 1.7400592358473744E9, 0.0, 2025-02-20 13:47:15.847
34.0, 328.09394331276417, 169.77462843852118, 9.209503640886396, -54.157491258345544, 0.0, -0.01600000075995922, 0.9920000471174717, 0.0, 0.0, 0.0, 0.0, 0.0, 1.7400592358474815E9, 0.0, 2025-02-20 13:47:15.847
35.0, 136.4016311839223, 410.5961363352835, 17.209149646107107, -4.81325124297291, 0.0, -0.01600000075995922, 0.9920000471174717, 0.0, 0.0, 0.0, 0.0, 0.0, 1.7400592358764167E9, 0.0, 2025-02-20 13:47:15.876
35.0, 170.60862612864003, 396.3396377041936, 13.0989995948039, 66.42810301296413, 0.0, -0.01600000075995922, 0.9920000471174717, 0.0, 0.0, 0.0, 0.0, 0.0, 1.7400592358764987E9, 0.0, 2025-02-20 13:47:15.876
36.0, 374.95675970753655, 158.26695627486333, 10.312774127814919, 7.894928806461394, 0.0, -0.01600000075995922, 0.9920000471174717, 0.0, 0.0, 0.0, 0.0, 0.0, 1.740059235876711E9, 0.0, 2025-02-20 13:47:15.876
36.0, 322.2297801822424, 166.49099627742544, 12.530534801539034, -60.25726808607578, 0.0, -0.01600000075995922, 0.9920000471174717, 0.0, 0.0, 0.0, 0.0, 0.0, 1.7400592358768408E9, 0.0, 2025-02-20 13:47:15.876
37.0, 129.5800536647439, 406.97217327822, 15.649611364584416, -5.434074635617435, 0.0, -0.01600000075995922, 0.9920000471174717, 0.0, 0.0, 0.0, 0.0, 0.0, 1.7400592358772814E9, 0.0, 2025-02-20 13:47:15.877
37.0, 179.2515349262394, 398.4526811791584, 15.140984970610589, 60.64247778151184, 0.0, -0.01600000075995922, 0.9920000471174717, 0.0, 0.0, 0.0, 0.0, 0.0, 1.74005923587735E9, 0.0, 2025-02-20 13:47:15.877
38.0, 356.87060352182016, 164.62104629958048, 9.246902640443295, 10.112689480185509, 0.0, -0.01600000075995922, 0.9920000471174717, 0.0, 0.0, 0.0, 0.0, 0.0, 1.7400592358786955E9, 0.0, 2025-02-20 13:47:15.878
38.0, 339.7138124750927, 171.26684852084145, 8.857953045051545, -58.41349740792066, 0.0, -0.01600000075995922, 0.9920000471174717, 0.0, 0.0, 0.0, 0.0, 0.0, 1.7400592358788671E9, 0.0, 2025-02-20 13:47:15.878
39.0, 134.72241610381752, 403.91293511446565, 11.711496711242944, 2.9246017653495073, 0.0, -0.01600000075995922, 0.9920000471174717, 0.0, 0.0, 0.0, 0.0, 0.0, 1.7400592359062119E9, 0.0, 2025-02-20 13:47:15.906
39.0, 179.79756031977013, 398.35170388035476, 13.764701786916703, 68.19333579204977, 0.0, -0.01600000075995922, 0.9920000471174717, 0.0, 0.0, 0.0, 0.0, 0.0, 1.7400592359063177E9, 0.0, 2025-02-20 13:47:15.906
40.0, 375.1998532046564, 171.10603282274678, 9.968703331891447, 7.416221612133086, 0.0, -0.01600000075995922, 0.9920000471174717, 0.0, 0.0, 0.0, 0.0, 0.0, 1.740059235906928E9, 0.0, 2025-02-20 13:47:15.906
40.0, 340.0167443715036, 179.51706782309338, 10.196837229188532, -60.43304338399321, 0.0, -0.01600000075995922, 0.9920000471174717, 0.0, 0.0, 0.0, 0.0, 0.0, 1.7400592359069886E9, 0.0, 2025-02-20 13:47:15.906
41.0, 119.3177681863308, 400.73402015212923, 12.971842996310443, -2.8311042664572597, 0.0, -0.01600000075995922, 0.9920000471174717, 0.0, 0.0, 0.0, 0.0, 0.0, 1.74005923593621E9, 0.0, 2025-02-20 13:47:15.936
41.0, 166.7602690742351, 399.29041876923293, 13.547787589486688, 55.328079944476485, 0.0, -0.01600000075995922, 0.9920000471174717, 0.0, 0.0, 0.0, 0.0, 0.0, 1.7400592359362829E9, 0.0, 2025-02-20 13:47:15.936
42.0, 384.55708289379254, 170.93025752482936, 7.937937655951828, 0.38520969543606043, 0.0, -0.01600000075995922, 0.9920000471174717, 0.0, 0.0, 0.0, 0.0, 0.0, 1.7400592359367533E9, 0.0, 2025-02-20 13:47:15.936
42.0, 340.2037393692881, 177.22824905021116, 12.190203905571252, -61.47647547163069, 0.0, -0.01600000075995922, 0.9920000471174717, 0.0, 0.0, 0.0, 0.0, 0.0, 1.7400592359368217E9, 0.0, 2025-02-20 13:47:15.936
43.0, 136.22959578596056, 393.934882032685, 13.772181586828083, -2.292558672837913, 0.0, -0.01600000075995922, 0.9920000471174717, 0.0, 0.0, 0.0, 0.0, 0.0, 1.7400592359373872E9, 0.0, 2025-02-20 13:47:15.937
43.0, 176.46156955929473, 391.50020716153085, 10.552127724979073, 59.6588840931654, 0.0, -0.01600000075995922, 0.9920000471174717, 0.0, 0.0, 0.0, 0.0, 0.0, 1.7400592359375017E9, 0.0, 2025-02-20 13:47:15.937
44.0, 393.00551689369604, 179.8087800196372, 8.970150043722242, -1.7876721788197756, 0.0, -0.01600000075995922, 0.9920000471174717, 0.0, 0.0, 0.0, 0.0, 0.0, 1.7400592359384165E9, 0.0, 2025-02-20 13:47:15.938
44.0, 333.77111144550145, 174.87772192806005, 9.355359739158303, -61.60363207012415, 0.0, -0.01600000075995922, 0.9920000471174717, 0.0, 0.0, 0.0, 0.0, 0.0, 1.740059235938553E9, 0.0, 2025-02-20 13:47:15.938
45.0, 125.87007290869951, 389.2057785387151, 13.738522487226874, -3.0293189641088247, 0.0, -0.01600000075995922, 0.9920000471174717, 0.0, 0.0, 0.0, 0.0, 0.0, 1.7400592359663336E9, 0.0, 2025-02-20 13:47:15.966
45.0, 172.31402050843462, 386.830942066852, 13.439330490771681, 63.48106184788048, 0.0, -0.01600000075995922, 0.9920000471174717, 0.0, 0.0, 0.0, 0.0, 0.0, 1.740059235966405E9, 0.0, 2025-02-20 13:47:15.966
46.0, 378.29649036796764, 174.69072693027556, 10.944817220326513, 2.659068868495524, 0.0, -0.01600000075995922, 0.9920000471174717, 0.0, 0.0, 0.0, 0.0, 0.0, 1.7400592359669476E9, 0.0, 2025-02-20 13:47:15.966
46.0, 333.50557854864746, 178.14265458937734, 10.944817220326513, -56.558507029898465, 0.0, -0.01600000075995922, 0.9920000471174717, 0.0, 0.0, 0.0, 0.0, 0.0, 1.740059235967094E9, 0.0, 2025-02-20 13:47:15.967
47.0, 101.75893789436668, 384.6468404927291, 15.380338567774743, 1.1406694864854217, 0.0, -0.01600000075995922, 0.9920000471174717, 0.0, 0.0, 0.0, 0.0, 0.0, 1.7400592359962935E9, 0.0, 2025-02-20 13:47:15.996
47.0, 158.85786046786234, 376.8977677845396, 12.70631009945646, 69.45368207711726, 0.0, -0.01600000075995922, 0.9920000471174717, 0.0, 0.0, 0.0, 0.0, 0.0, 1.7400592359965298E9, 0.0, 2025-02-20 13:47:15.996
48.0, 394.609933974687, 177.59288929589093, 9.142185441683978, 10.535298175178468, 0.0, -0.01600000075995922, 0.9920000471174717, 0.0, 0.0, 0.0, 0.0, 0.0, 1.740059235996927E9, 0.0, 2025-02-20 13:47:15.996
48.0, 356.8051552725956, 174.62901858100668, 10.784001522231847, -56.62208532914519, 0.0, -0.01600000075995922, 0.9920000471174717, 0.0, 0.0, 0.0, 0.0, 0.0, 1.7400592359969923E9, 0.0, 2025-02-20 13:47:15.996
49.0, 596.8375442787074, 374.22934916615486, 16.094659459311515, -1.1406694864854217, 0.0, -0.01600000075995922, 0.9920000471174717, 0.0, 0.0, 0.0, 0.0, 0.0, 1.740059235997304E9, 0.0, 2025-02-20 13:47:15.997
49.0, 648.0723037216812, 379.02951075928286, 11.531981513369828, 68.96375518292189, 0.0, -0.01600000075995922, 0.9920000471174717, 0.0, 0.0, 0.0, 0.0, 0.0, 1.7400592359975195E9, 0.0, 2025-02-20 13:47:15.997
50.0, 871.8866165699437, 180.74188505858183, 15.197083469945937, 0.80407849047333, 0.0, -0.01600000075995922, 0.9920000471174717, 0.0, 0.0, 0.0, 0.0, 0.0, 1.7400592359983954E9, 0.0, 2025-02-20 13:47:15.998
50.0, 830.2783596129157, 163.05028831819072, 10.488549425732344, -57.1755905225873, 0.0, -0.01600000075995922, 0.9920000471174717, 0.0, 0.0, 0.0, 0.0, 0.0, 1.7400592359984832E9, 0.0, 2025-02-20 13:47:15.998
51.0, 608.9809994348325, 371.7610151953995, 14.927810673136264, 3.466887258924544, 0.0, -0.01600000075995922, 0.9920000471174717, 0.0, 0.0, 0.0, 0.0, 0.0, 1.7400592360263376E9, 0.0, 2025-02-20 13:47:16.026
51.0, 661.2143121659756, 383.96243880083784, 12.986802596133202, 67.60243159905076, 0.0, -0.01600000075995922, 0.9920000471174717, 0.0, 0.0, 0.0, 0.0, 0.0, 1.7400592360264077E9, 0.0, 2025-02-20 13:47:16.026
52.0, 895.7434383872896, 186.49011129047722, 7.620046159718186, 8.83364369533956, 0.0, -0.01600000075995922, 0.9920000471174717, 0.0, 0.0, 0.0, 0.0, 0.0, 1.740059236026871E9, 0.0, 2025-02-20 13:47:16.026
52.0, 850.2793445759453, 179.4385299240239, 9.224463240709156, -61.10622537601739, 0.0, -0.01600000075995922, 0.9920000471174717, 0.0, 0.0, 0.0, 0.0, 0.0, 1.7400592360269303E9, 0.0, 2025-02-20 13:47:16.026
53.0, 1082.0315950801596, 356.00855658203363, 15.08862637123093, 2.090604075230658, 0.0, -0.01600000075995922, 0.9920000471174717, 0.0, 0.0, 0.0, 0.0, 0.0, 1.7400592360562773E9, 0.0, 2025-02-20 13:47:16.056
53.0, 1139.7887400458567, 365.43123452039436, 16.199376658070832, 72.21372824441642, 0.0, -0.01600000075995922, 0.9920000471174717, 0.0, 0.0, 0.0, 0.0, 0.0, 1.7400592360564265E9, 0.0, 2025-02-20 13:47:16.056
54.0, 1380.597158292774, 190.21131174638867, 7.713543658610433, 0.4300884949043393, 0.0, -0.01600000075995922, 0.9920000471174717, 0.0, 0.0, 0.0, 0.0, 0.0, 1.7400592360566757E9, 0.0, 2025-02-20 13:47:16.056
54.0, 1345.948855153285, 181.5889723985456, 8.330627151299268, -63.64935734588653, 0.0, -0.01600000075995922, 0.9920000471174717, 0.0, 0.0, 0.0, 0.0, 0.0, 1.7400592360567396E9, 0.0, 2025-02-20 13:47:16.056
55.0, 1574.8887008908205, 368.2193299373612, 17.714036140125245, 1.731573679484427, 0.0, -0.01600000075995922, 0.9920000471174717, 0.0, 0.0, 0.0, 0.0, 0.0, 1.740059236057732E9, 0.0, 2025-02-20 13:47:16.057
55.0, 1630.3084083842114, 371.4487335490994, 14.434143878985196, 72.45682174153626, 0.0, -0.01600000075995922, 0.9920000471174717, 0.0, 0.0, 0.0, 0.0, 0.0, 1.74005923605783E9, 0.0, 2025-02-20 13:47:16.057
56.0, 1388.3611906007864, 194.62813359405845, 11.225309717003256, 2.01580607611686, 0.0, -0.01600000075995922, 0.9920000471174717, 0.0, 0.0, 0.0, 0.0, 0.0, 1.740059236058352E9, 0.0, 2025-02-20 13:47:16.058
56.0, 1334.0858924938366, 186.45084234094247, 10.481069625820965, -65.18645622767508, 0.0, -0.01600000075995922, 0.9920000471174717, 0.0, 0.0, 0.0, 0.0, 0.0, 1.7400592360584972E9, 0.0, 2025-02-20 13:47:16.058
57.0, 1570.9730256372131, 349.47495135944337, 9.781708334106952, 8.740146196447313, 0.0, -0.01600000075995922, 0.9920000471174717, 0.0, 0.0, 0.0, 0.0, 0.0, 1.7400592360863595E9, 0.0, 2025-02-20 13:47:16.086
57.0, 1625.2333641443402, 359.6979678883217, 16.939876849297434, 73.53391292877495, 0.0, -0.01600000075995922, 0.9920000471174717, 0.0, 0.0, 0.0, 0.0, 0.0, 1.7400592360865316E9, 0.0, 2025-02-20 13:47:16.086
58.0, 1393.828924336005, 200.60823362320662, 12.410858002956957, -3.62022315710783, 0.0, -0.01600000075995922, 0.9920000471174717, 0.0, 0.0, 0.0, 0.0, 0.0, 1.7400592360868769E9, 0.0, 2025-02-20 13:47:16.086
58.0, 1346.92496904172, 192.89468996459618, 11.733936110977083, -67.06388600543141, 0.0, -0.01600000075995922, 0.9920000471174717, 0.0, 0.0, 0.0, 0.0, 0.0, 1.7400592360869873E9, 0.0, 2025-02-20 13:47:16.086
59.0, 1574.0397436008789, 351.48327763564885, 17.190450146328658, 7.408741812221706, 0.0, -0.01600000075995922, 0.9920000471174717, 0.0, 0.0, 0.0, 0.0, 0.0, 1.740059236116312E9, 0.0, 2025-02-20 13:47:16.116
59.0, 1622.8547877725214, 367.99680588999763, 15.215782969724387, 71.82477864902467, 0.0, -0.01600000075995922, 0.9920000471174717, 0.0, 0.0, 0.0, 0.0, 0.0, 1.7400592361163874E9, 0.0, 2025-02-20 13:47:16.116
60.0, 1405.721806195099, 204.17983808089048, 6.191404376644641, -3.9642939530313015, 0.0, -0.01600000075995922, 0.9920000471174717, 0.0, 0.0, 0.0, 0.0, 0.0, 1.7400592361166787E9, 0.0, 2025-02-20 13:47:16.116
60.0, 1353.4959732638672, 183.05127328122035, 6.210103876423091, -64.0682261409238, 0.0, -0.01600000075995922, 0.9920000471174717, 0.0, 0.0, 0.0, 0.0, 0.0, 1.740059236116748E9, 0.0, 2025-02-20 13:47:16.116
61.0, 1566.6534411883913, 341.8305958500132, 15.256921869236976, 11.66848786175251, 0.0, -0.01600000075995922, 0.9920000471174717, 0.0, 0.0, 0.0, 0.0, 0.0, 1.7400592361172872E9, 0.0, 2025-02-20 13:47:16.117
61.0, 1633.9697704408318, 362.263539257925, 13.719822987448424, 78.54163896944374, 0.0, -0.01600000075995922, 0.9920000471174717, 0.0, 0.0, 0.0, 0.0, 0.0, 1.7400592361173975E9, 0.0, 2025-02-20 13:47:16.117
62.0, 1412.221752318088, 212.37021898385137, 14.71089647570625, -5.860423230566084, 0.0, -0.01600000075995922, 0.9920000471174717, 0.0, 0.0, 0.0, 0.0, 0.0, 1.740059236118797E9, 0.0, 2025-02-20 13:47:16.118
62.0, 1353.1668620677665, 195.13115013809875, 10.926117720548064, -65.23507492709905, 0.0, -0.01600000075995922, 0.9920000471174717, 0.0, 0.0, 0.0, 0.0, 0.0, 1.7400592361188853E9, 0.0, 2025-02-20 13:47:16.118
63.0, 1560.3442299631424, 345.3161826087162, 12.631512100342661, 9.963093481957912, 0.0, -0.01600000075995922, 0.9920000471174717, 0.0, 0.0, 0.0, 0.0, 0.0, 1.740059236146426E9, 0.0, 2025-02-20 13:47:16.146
63.0, 1617.5628293352202, 371.381415349897, 18.555513630155474, 80.0001999521628, 0.0, -0.01600000075995922, 0.9920000471174717, 0.0, 0.0, 0.0, 0.0, 0.0, 1.7400592361465614E9, 0.0, 2025-02-20 13:47:16.146
64.0, 1410.3106634407304, 217.16851062700152, 8.446564049925655, -1.851250478066504, 0.0, -0.01600000075995922, 0.9920000471174717, 0.0, 0.0, 0.0, 0.0, 0.0, 1.740059236146918E9, 0.0, 2025-02-20 13:47:16.146
64.0, 1356.4430144289508, 204.93716782191768, 5.791235081385821, -71.74998064991087, 0.0, -0.01600000075995922, 0.9920000471174717, 0.0, 0.0, 0.0, 0.0, 0.0, 1.7400592361469915E9, 0.0, 2025-02-20 13:47:16.146
65.0, 1563.3922484270297, 342.17466664593667, 12.534274701494724, 9.069257392548025, 0.0, -0.01600000075995922, 0.9920000471174717, 0.0, 0.0, 0.0, 0.0, 0.0, 1.7400592361762795E9, 0.0, 2025-02-20 13:47:16.176
65.0, 1627.0098166232929, 363.98015333758667, 12.074267006944865, 78.34342427179217, 0.0, -0.01600000075995922, 0.9920000471174717, 0.0, 0.0, 0.0, 0.0, 0.0, 1.7400592361764736E9, 0.0, 2025-02-20 13:47:16.176
66.0, 1419.2228450351395, 227.41957640554756, 9.157145041506737, -3.6763216564431787, 0.0, -0.01600000075995922, 0.9920000471174717, 0.0, 0.0, 0.0, 0.0, 0.0, 1.7400592361766875E9, 0.0, 2025-02-20 13:47:16.176
66.0, 1339.9238763246685, 200.7073409720324, 13.323393592145294, -68.2195150917396, 0.0, -0.01600000075995922, 0.9920000471174717, 0.0, 0.0, 0.0, 0.0, 0.0, 1.7400592361768043E9, 0.0, 2025-02-20 13:47:16.176
67.0, 1552.112710160669, 340.5403303653002, 13.151358194183558, 11.941500558517873, 0.0, -0.01600000075995922, 0.9920000471174717, 0.0, 0.0, 0.0, 0.0, 0.0, 1.7400592361774087E9, 0.0, 2025-02-20 13:47:16.177
67.0, 1621.1381736928597, 371.0485642538406, 13.648764888290316, 79.51027305796742, 0.0, -0.01600000075995922, 0.9920000471174717, 0.0, 0.0, 0.0, 0.0, 0.0, 1.7400592361774788E9, 0.0, 2025-02-20 13:47:16.177
68.0, 1427.502983537037, 232.45722164586186, 12.848426297772676, -1.7652327790856361, 0.0, -0.01600000075995922, 0.9920000471174717, 0.0, 0.0, 0.0, 0.0, 0.0, 1.7400592361782844E9, 0.0, 2025-02-20 13:47:16.178
68.0, 1351.2520332904533, 198.06697160331532, 7.728503258433193, -61.745748268440366, 0.0, -0.01600000075995922, 0.9920000471174717, 0.0, 0.0, 0.0, 0.0, 0.0, 1.7400592361783628E9, 0.0, 2025-02-20 13:47:16.178
69.0, 1557.9319944917224, 333.2737047513947, 5.585540583822876, 9.084216992370784, 0.0, -0.01600000075995922, 0.9920000471174717, 0.0, 0.0, 0.0, 0.0, 0.0, 1.7400592362062132E9, 0.0, 2025-02-20 13:47:16.206
69.0, 1630.0279158875346, 369.95651346677914, 11.352466315496713, 75.56093870475888, 0.0, -0.01600000075995922, 0.9920000471174717, 0.0, 0.0, 0.0, 0.0, 0.0, 1.7400592362062893E9, 0.0, 2025-02-20 13:47:16.206
70.0, 1424.1931720762514, 242.05754483211786, 9.770488634239882, -5.953920729458332, 0.0, -0.01600000075995922, 0.9920000471174717, 0.0, 0.0, 0.0, 0.0, 0.0, 1.7400592362069128E9, 0.0, 2025-02-20 13:47:16.206
70.0, 1347.1344034392387, 205.40091541642323, 9.576013836544007, -64.1392842400819, 0.0, -0.01600000075995922, 0.9920000471174717, 0.0, 0.0, 0.0, 0.0, 0.0, 1.740059236207032E9, 0.0, 2025-02-20 13:47:16.207
71.0, 1543.7278544600122, 329.2981910984963, 11.285148116294295, 20.13562136143446, 0.0, -0.01600000075995922, 0.9920000471174717, 0.0, 0.0, 0.0, 0.0, 0.0, 1.7400592362362869E9, 0.0, 2025-02-20 13:47:16.236
71.0, 1620.65198669862, 368.58771008299664, 12.466956502292305, 78.52293946966529, 0.0, -0.01600000075995922, 0.9920000471174717, 0.0, 0.0, 0.0, 0.0, 0.0, 1.7400592362365327E9, 0.0, 2025-02-20 13:47:16.236
72.0, 1426.4333721497096, 243.71806041244417, 5.626679483335465, -2.580530969426036, -0.01600000075995922, -0.01600000075995922, 0.9920000471174717, 0.0, 0.0, 0.0, 0.0, 0.0, 1.740059236236702E9, 0.0, 2025-02-20 13:47:16.236
72.0, 1341.9471622006968, 203.08591734385118, 8.480223149526864, -59.64392449334264, -0.01600000075995922, -0.01600000075995922, 0.9920000471174717, 0.0, 0.0, 0.0, 0.0, 0.0, 1.7400592362367668E9, 0.0, 2025-02-20 13:47:16.236
73.0, 1530.1407979209907, 328.0154054136947, 12.216383205261081, 19.885048064403236, -0.01600000075995922, -0.01600000075995922, 0.9920000471174717, 0.0, 0.0, 0.0, 0.0, 0.0, 1.7400592362373512E9, 0.0, 2025-02-20 13:47:16.237
73.0, 1605.5577504774556, 379.14170775795355, 14.912851073313504, 76.45477479416877, -0.01600000075995922, -0.01600000075995922, 0.9920000471174717, 0.0, 0.0, 0.0, 0.0, 0.0, 1.7400592362374473E9, 0.0, 2025-02-20 13:47:16.237
74.0, 1436.6021601292305, 256.0447706663981, 10.68676412338391, 6.589703721925616, -0.01600000075995922, -0.01600000075995922, 0.9920000471174717, 0.0, 0.0, 0.0, 0.0, 0.0, 1.7400592362383013E9, 0.0, 2025-02-20 13:47:16.238
74.0, 1356.4953730283305, 205.4532740158029, 8.450303949881345, -60.930450078099966, -0.01600000075995922, -0.01600000075995922, 0.9920000471174717, 0.0, 0.0, 0.0, 0.0, 0.0, 1.7400592362383733E9, 0.0, 2025-02-20 13:47:16.238
75.0, 1530.8438991126604, 321.1863480946049, 12.003208907786757, 21.631581343710423, -0.01600000075995922, -0.01600000075995922, 0.9920000471174717, 0.0, 0.0, 0.0, 0.0, 0.0, 1.7400592362665422E9, 0.0, 2025-02-20 13:47:16.266
75.0, 1610.5318174185231, 367.039391501341, 14.490242378320545, 75.34776440728456, -0.01600000075995922, -0.01600000075995922, 0.9920000471174717, 0.0, 0.0, 0.0, 0.0, 0.0, 1.7400592362666361E9, 0.0, 2025-02-20 13:47:16.266
76.0, 1428.2434837282635, 252.66390110645443, 7.421831462066621, -9.177714491263032, -0.01600000075995922, -0.01600000075995922, 0.9920000471174717, 0.0, 0.0, 0.0, 0.0, 0.0, 1.7400592362668436E9, 0.0, 2025-02-20 13:47:16.266
76.0, 1350.9565811939538, 207.19980729511008, 9.628372435923666, -63.93358974251896, -0.01600000075995922, -0.01600000075995922, 0.9920000471174717, 0.0, 0.0, 0.0, 0.0, 0.0, 1.740059236267079E9, 0.0, 2025-02-20 13:47:16.267
77.0, 1539.2848533126526, 319.3388375164941, 15.776767963077873, 13.635675238445401, -0.01600000075995922, -0.01600000075995922, 0.9920000471174717, 0.0, 0.0, 0.0, 0.0, 0.0, 1.7400592362966568E9, 0.0, 2025-02-20 13:47:16.296
77.0, 1620.3789740018547, 367.73501289309934, 10.170657929498702, 71.08801835775375, -0.01600000075995922, -0.01600000075995922, 0.9920000471174717, 0.0, 0.0, 0.0, 0.0, 0.0, 1.740059236296842E9, 0.0, 2025-02-20 13:47:16.296
78.0, 1450.6417445628904, 265.0841088593006, 14.976429372560233, -5.000246240757406, -0.01600000075995922, -0.01600000075995922, 0.9920000471174717, 0.0, 0.0, 0.0, 0.0, 0.0, 1.7400592362969787E9, 0.0, 2025-02-20 13:47:16.296
78.0, 1353.1930413674563, 198.5942974970676, 17.05581374792382, -64.42351663671434, -0.01600000075995922, -0.01600000075995922, 0.9920000471174717, 0.0, 0.0, 0.0, 0.0, 0.0, 1.7400592362970924E9, 0.0, 2025-02-20 13:47:16.297
79.0, 1522.4627833119594, 307.05326616205275, 13.547787589486688, 21.418407046236098, -0.01600000075995922, -0.01600000075995922, 0.9920000471174717, 0.0, 0.0, 0.0, 0.0, 0.0, 1.740059236297233E9, 0.0, 2025-02-20 13:47:16.297
79.0, 1612.0726562002674, 368.36705598561093, 13.674944187980145, 82.337637424469, -0.01600000075995922, -0.01600000075995922, 0.9920000471174717, 0.0, 0.0, 0.0, 0.0, 0.0, 1.7400592362973216E9, 0.0, 2025-02-20 13:47:16.297
80.0, 1449.5833528754301, 258.8571754330769, 7.017922266852111, -3.466887258924544, -0.01600000075995922, -0.01600000075995922, 0.9920000471174717, 0.0, 0.0, 0.0, 0.0, 0.0, 1.740059236298751E9, 0.0, 2025-02-20 13:47:16.298
80.0, 1358.5410983040929, 208.38909548101947, 13.10273949475959, -64.88726423121989, -0.01600000075995922, -0.01600000075995922, 0.9920000471174717, 0.0, 0.0, 0.0, 0.0, 0.0, 1.7400592362988267E9, 0.0, 2025-02-20 13:47:16.298
81.0, 1518.4423908595927, 305.5199071802199, 14.460323178675026, 26.9384993808344, -0.01600000075995922, 0.0, 0.9920000471174717, 0.0, 0.0, 0.0, 0.0, 0.0, 1.740059236326228E9, 0.0, 2025-02-20 13:47:16.326
81.0, 1615.1206746641546, 367.3385834977962, 10.911158120725304, 85.86436308268458, -0.01600000075995922, 0.0, 0.9920000471174717, 0.0, 0.0, 0.0, 0.0, 0.0, 1.7400592363263323E9, 0.0, 2025-02-20 13:47:16.326
82.0, 1448.558620287571, 269.1344205113128, 7.919238156173378, -7.270365513861179, 0.0, 0.0, 0.9920000471174717, 0.0, 0.0, 0.0, 0.0, 0.0, 1.7400592363268805E9, 0.0, 2025-02-20 13:47:16.326
82.0, 1345.3841302599758, 207.77575188828632, 9.923824532423168, -64.2888802383095, 0.0, 0.0, 0.9920000471174717, 0.0, 0.0, 0.0, 0.0, 0.0, 1.740059236327006E9, 0.0, 2025-02-20 13:47:16.327
83.0, 1517.0548879760318, 303.71353550162166, 18.559253530111164, 24.99749130383134, 0.0, 0.0, 0.9920000471174717, 0.0, 0.0, 0.0, 0.0, 0.0, 1.7400592363563292E9, 0.0, 2025-02-20 13:47:16.356
83.0, 1623.6401667632163, 369.39178857346997, 14.198530181776732, 75.02613301109523, 0.0, 0.0, 0.9920000471174717, 0.0, 0.0, 0.0, 0.0, 0.0, 1.7400592363564224E9, 0.0, 2025-02-20 13:47:16.356
84.0, 1453.32325283112, 273.2782296622172, 9.467556737829, -5.194721038453281, 0.0, 0.0, 0.9920000471174717, 0.0, 0.0, 0.0, 0.0, 0.0, 1.7400592363566883E9, 0.0, 2025-02-20 13:47:16.356
84.0, 1341.0832453109324, 204.559437926393, 10.129519029986113, -60.64247778151184, 0.0, 0.0, 0.9920000471174717, 0.0, 0.0, 0.0, 0.0, 0.0, 1.7400592363568504E9, 0.0, 2025-02-20 13:47:16.356
85.0, 1510.4726640540175, 299.38647125288844, 14.598699477035552, 22.278584036044776, 0.0, 0.0, 0.9920000471174717, 0.0, 0.0, 0.0, 0.0, 0.0, 1.7400592363573556E9, 0.0, 2025-02-20 13:47:16.357
85.0, 1622.3125022789463, 366.7476793047972, 13.87315888563171, 74.00140042323619, 0.0, 0.0, 0.9920000471174717, 0.0, 0.0, 0.0, 0.0, 0.0, 1.740059236357414E9, 0.0, 2025-02-20 13:47:16.357
