%OpenBCI Raw EXG Data
%Number of channels = 4
%Sample Rate = 200 Hz
%Board = OpenBCI_GUI$BoardGanglionNative
Sample Index, EXG Channel 0, EXG Channel 1, EXG Channel 2, EXG Channel 3, Accel Channel 0, Accel Channel 1, Accel Channel 2, Other, Other, Other, Other, Other, Timestamp, Marker Channel, Timestamp (Formatted)
0.0, 4.6898345444351435, 154.89356651483104, 7.111419765744358, -167.3792225169018, 0.0, 0.0, 0.0, 0.0, 0.0, 0.0, 0.0, 0.0, 1.7398814863038452E9, 0.0, 2025-02-18 12:24:46.303
1.0, 12.034998057410121, -4.22795689990744, 12.466956502292305, -405.9530505402945, 0.0, -0.01600000075995922, 0.0, 0.0, 0.0, 0.0, 0.0, 0.0, 1.7398814863041425E9, 0.0, 2025-02-18 12:24:46.304
1.0, 5.968880329281092, -129.8717658612877, 12.115405906457454, -351.2027851389721, 0.0, -0.01600000075995922, 0.0, 0.0, 0.0, 0.0, 0.0, 0.0, 1.7398814863041887E9, 0.0, 2025-02-18 12:24:46.304
2.0, 1.6231165807694197, -237.5042166360654, 9.03746824292466, -538.0594066251069, 0.0, -0.01600000075995922, 0.0, 0.0, 0.0, 0.0, 0.0, 0.0, 1.7398814863337262E9, 0.0, 2025-02-18 12:24:46.333
2.0, 9.611542886123061, -298.13921461766586, 11.120592518243939, -659.1629770402797, 0.0, -0.01600000075995922, 0.0, 0.0, 0.0, 0.0, 0.0, 0.0, 1.739881486333784E9, 0.0, 2025-02-18 12:24:46.333
3.0, 12.199553655460477, -466.2327580261044, 18.824786426965147, -421.7690874529071, 0.0, -0.01600000075995922, 0.0, 0.0, 0.0, 0.0, 0.0, 0.0, 1.7398814863340027E9, 0.0, 2025-02-18 12:24:46.334
3.0, 8.310057701542974, -596.8917728280649, 14.70341667579487, -360.9190452238545, 0.0, -0.01600000075995922, 0.0, 0.0, 0.0, 0.0, 0.0, 0.0, 1.7398814863340347E9, 0.0, 2025-02-18 12:24:46.334
4.0, 2.8759830659255385, -741.5641927639954, 15.86278566205874, -546.4854012252763, 0.0, -0.01600000075995922, 0.0, 0.0, 0.0, 0.0, 0.0, 0.0, 1.7398814863344421E9, 0.0, 2025-02-18 12:24:46.334
4.0, 7.23670641425997, -808.1044927756302, 11.965809908229858, -662.6897026984952, 0.0, -0.01600000075995922, 0.0, 0.0, 0.0, 0.0, 0.0, 0.0, 1.739881486334483E9, 0.0, 2025-02-18 12:24:46.334
5.0, 17.27459789533168, -969.5447541628964, 11.580600212793797, -897.5797292655334, 0.0, -0.01600000075995922, 0.0, 0.0, 0.0, 0.0, 0.0, 0.0, 1.7398814863634465E9, 0.0, 2025-02-18 12:24:46.363
5.0, 11.743285860866308, -1105.701421899721, 12.908264697063714, -837.2308336305432, 0.0, -0.01600000075995922, 0.0, 0.0, 0.0, 0.0, 0.0, 0.0, 1.7398814863634963E9, 0.0, 2025-02-18 12:24:46.363
6.0, 5.314397837035358, -1219.8412985973991, 10.709203523118049, -1024.1435536160134, 0.0, -0.01600000075995922, 0.0, 0.0, 0.0, 0.0, 0.0, 0.0, 1.7398814863637333E9, 0.0, 2025-02-18 12:24:46.363
6.0, 6.806617919355631, -1310.9938802174293, 12.388418603222817, -1112.9456081138924, 0.0, -0.01600000075995922, 0.0, 0.0, 0.0, 0.0, 0.0, 0.0, 1.7398814863637643E9, 0.0, 2025-02-18 12:24:46.363
7.0, 14.836183124221861, -1490.9092473858036, 12.504355501849204, -1357.3798593678512, 0.0, -0.01600000075995922, 0.0, 0.0, 0.0, 0.0, 0.0, 0.0, 1.7398814863644664E9, 0.0, 2025-02-18 12:24:46.364
7.0, 9.948133882135153, -1604.7013133876026, 7.653705259319395, -1303.9235993511975, 0.0, -0.01600000075995922, 0.0, 0.0, 0.0, 0.0, 0.0, 0.0, 1.739881486364499E9, 0.0, 2025-02-18 12:24:46.364
8.0, 6.238153126090765, -1736.8712477716617, 9.355359739158303, -1470.7829757742584, 0.0, -0.01600000075995922, 0.0, 0.0, 0.0, 0.0, 0.0, 0.0, 1.739881486365273E9, 0.0, 2025-02-18 12:24:46.365
8.0, 9.555444386787713, -1801.5303781055845, 11.120592518243939, -1589.8333411137573, 0.0, -0.01600000075995922, 0.0, 0.0, 0.0, 0.0, 0.0, 0.0, 1.7398814863653042E9, 0.0, 2025-02-18 12:24:46.365
9.0, 15.064317021518946, -1965.5062916628085, 13.828280086163431, -1356.2803287808783, 0.0, -0.01600000075995922, 0.0, 0.0, 0.0, 0.0, 0.0, 0.0, 1.7398814863935044E9, 0.0, 2025-02-18 12:24:46.393
9.0, 14.47341282851994, -2092.7470379052684, 14.366825679782778, -1302.8278086641803, 0.0, -0.01600000075995922, 0.0, 0.0, 0.0, 0.0, 0.0, 0.0, 1.7398814863935673E9, 0.0, 2025-02-18 12:24:46.393
10.0, 3.3135513607412577, -2216.4236594899558, 13.966656384523958, -1480.3533797608688, 0.0, -0.01600000075995922, 0.5120000243186951, 0.0, 0.0, 0.0, 0.0, 0.0, 1.7398814863940058E9, 0.0, 2025-02-18 12:24:46.394
10.0, 9.405848388560116, -2282.4553331076168, 14.628618676681072, -1594.4895165585913, 0.0, -0.01600000075995922, 0.5120000243186951, 0.0, 0.0, 0.0, 0.0, 0.0, 1.7398814863940349E9, 0.0, 2025-02-18 12:24:46.394
11.0, 13.486079240217805, -2448.3984340415336, 18.33485953276977, -1360.0875469357707, 0.0, -0.01600000075995922, 0.5120000243186951, 0.0, 0.0, 0.0, 0.0, 0.0, 1.739881486423582E9, 0.0, 2025-02-18 12:24:46.423
11.0, 9.196413991041481, -2545.0280991466716, 11.423524414654821, -1319.1898709703237, 0.0, -0.01600000075995922, 0.5120000243186951, 0.0, 0.0, 0.0, 0.0, 0.0, 1.73988148642362E9, 0.0, 2025-02-18 12:24:46.423
12.0, 1.7839322788640857, -2680.885574887041, 10.795221222098917, -1496.2629141723737, 0.0, -0.01600000075995922, 0.5120000243186951, 0.0, 0.0, 0.0, 0.0, 0.0, 1.7398814864238112E9, 0.0, 2025-02-18 12:24:46.423
12.0, 4.6486956449225545, -2754.3185105170123, 12.70631009945646, -1619.4421290629543, 0.0, -0.01600000075995922, 0.5120000243186951, 0.0, 0.0, 0.0, 0.0, 0.0, 1.7398814864238284E9, 0.0, 2025-02-18 12:24:46.423
13.0, 13.770311636850238, -2910.8595029623248, 15.802947262767702, -1387.7216677083634, 0.0, -0.01600000075995922, 0.5120000243186951, 0.0, 0.0, 0.0, 0.0, 0.0, 1.7398814864245949E9, 0.0, 2025-02-18 12:24:46.424
13.0, 10.419361276552081, -3023.1107301823795, 16.932397049386054, -1353.5483318632469, 0.0, -0.01600000075995922, 0.5120000243186951, 0.0, 0.0, 0.0, 0.0, 0.0, 1.7398814864263537E9, 0.0, 2025-02-18 12:24:46.426
14.0, 4.300884949043393, -3140.672615339514, 9.310480939690024, -1524.6300553362817, 0.0, -0.01600000075995922, 0.5120000243186951, 0.0, 0.0, 0.0, 0.0, 0.0, 1.73988148642801E9, 0.0, 2025-02-18 12:24:46.428
14.0, 7.049711416475475, -3219.2516533085145, 13.794620986562222, -1636.7728254576214, 0.0, -0.01600000075995922, 0.5120000243186951, 0.0, 0.0, 0.0, 0.0, 0.0, 1.7398814864280372E9, 0.0, 2025-02-18 12:24:46.428
15.0, 12.625902250409126, -3384.1924610543065, 16.412550955545157, -1401.3162040472962, 0.0, -0.01600000075995922, 0.5120000243186951, 0.0, 0.0, 0.0, 0.0, 0.0, 1.7398814864535744E9, 0.0, 2025-02-18 12:24:46.453
15.0, 11.608649462461472, -3499.398209239356, 13.11395919462666, -1344.707208367996, 0.0, -0.01600000075995922, 0.5120000243186951, 0.0, 0.0, 0.0, 0.0, 0.0, 1.7398814864536197E9, 0.0, 2025-02-18 12:24:46.453
16.0, 1.8736898778006434, -3643.4348461828195, 7.713543658610433, -1518.8593897046521, 0.0, -0.01600000075995922, 0.5120000243186951, 0.0, 0.0, 0.0, 0.0, 0.0, 1.739881486454059E9, 0.0, 2025-02-18 12:24:46.454
16.0, 6.354090024717152, -3693.0782781946473, 11.584340112749487, -1628.1224368601106, 0.0, -0.01600000075995922, 0.5120000243186951, 0.0, 0.0, 0.0, 0.0, 0.0, 1.7398814864540925E9, 0.0, 2025-02-18 12:24:46.454
17.0, 12.940053846687078, -3859.3766696243547, 17.691596740391105, -1391.5027065635659, 0.0, -0.01600000075995922, 0.5120000243186951, 0.0, 0.0, 0.0, 0.0, 0.0, 1.7398814864834504E9, 0.0, 2025-02-18 12:24:46.483
17.0, 12.177114255726337, -3984.3136374941096, 15.447656766977161, -1347.0670852400362, 0.0, -0.01600000075995922, 0.5120000243186951, 0.0, 0.0, 0.0, 0.0, 0.0, 1.7398814864835122E9, 0.0, 2025-02-18 12:24:46.483
18.0, -0.8190380902960896, -4120.01403743634, 6.587833771947771, -1514.1994743598625, 0.0, -0.01600000075995922, 0.5120000243186951, 0.0, 0.0, 0.0, 0.0, 0.0, 1.73988148648385E9, 0.0, 2025-02-18 12:24:46.483
18.0, 8.541931498795748, -4199.34853519639, 13.738522487226874, -1622.161036330741, 0.0, -0.01600000075995922, 0.5120000243186951, 0.0, 0.0, 0.0, 0.0, 0.0, 1.7398814864838893E9, 0.0, 2025-02-18 12:24:46.483
19.0, 9.787318184040487, -4372.879893140402, 15.87400536192581, -1391.790678860154, 0.0, -0.01600000075995922, 0.5120000243186951, 0.0, 0.0, 0.0, 0.0, 0.0, 1.739881486484604E9, 0.0, 2025-02-18 12:24:46.484
19.0, 12.513705251738429, -4484.802009164356, 13.431850690860301, -1344.609970969148, 0.0, -0.01600000075995922, 0.5120000243186951, 0.0, 0.0, 0.0, 0.0, 0.0, 1.7398814864846528E9, 0.0, 2025-02-18 12:24:46.484
20.0, 4.959107341244817, -4614.077260982711, 8.300707951653749, -1506.5177198508754, 0.0, -0.01600000075995922, 0.7520000357180834, 0.0, 0.0, 0.0, 0.0, 0.0, 1.7398814864854338E9, 0.0, 2025-02-18 12:24:46.485
20.0, 4.177468250505626, -4684.8773070438765, 9.42267793836072, -1606.842406112235, 0.0, -0.01600000075995922, 0.7520000357180834, 0.0, 0.0, 0.0, 0.0, 0.0, 1.739881486485466E9, 0.0, 2025-02-18 12:24:46.485
21.0, 9.443247388117015, -4850.71943067899, 12.68387069972232, -1387.9348420058377, 0.0, -0.01600000075995922, 0.7520000357180834, 0.0, 0.0, 0.0, 0.0, 0.0, 1.7398814865133955E9, 0.0, 2025-02-18 12:24:46.513
21.0, 7.550858010537922, -4965.210857972503, 16.595806053373963, -1340.2866466203704, 0.0, -0.01600000075995922, 0.7520000357180834, 0.0, 0.0, 0.0, 0.0, 0.0, 1.73988148651344E9, 0.0, 2025-02-18 12:24:46.513
22.0, 4.087710651569068, -5075.9175065108575, 10.26789532834664, -1509.3114251177758, 0.0, -0.01600000075995922, 0.7520000357180834, 0.0, 0.0, 0.0, 0.0, 0.0, 1.7398814865139616E9, 0.0, 2025-02-18 12:24:46.513
22.0, 7.520938810892403, -5165.8172216457315, 10.357652927283198, -1606.0495473216288, 0.0, -0.01600000075995922, 0.7520000357180834, 0.0, 0.0, 0.0, 0.0, 0.0, 1.739881486513988E9, 0.0, 2025-02-18 12:24:46.513
23.0, 12.352889553643763, -5339.60289278673, 16.68556365231052, -1384.662429544609, 0.0, -0.01600000075995922, 0.7520000357180834, 0.0, 0.0, 0.0, 0.0, 0.0, 1.7398814865434256E9, 0.0, 2025-02-18 12:24:46.543
23.0, 9.966833381913602, -5457.456490140408, 13.177537493873388, -1338.592471940443, 0.0, -0.01600000075995922, 0.7520000357180834, 0.0, 0.0, 0.0, 0.0, 0.0, 1.7398814865434701E9, 0.0, 2025-02-18 12:24:46.543
24.0, 3.425748359411955, -5610.323030879255, 7.975336655508727, -1489.108485557139, 0.0, -0.01600000075995922, 0.7520000357180834, 0.0, 0.0, 0.0, 0.0, 0.0, 1.7398814865437248E9, 0.0, 2025-02-18 12:24:46.543
24.0, 2.4010157715529203, -5692.993519399781, 9.08982684230432, -1586.291655855719, 0.0, -0.01600000075995922, 0.7520000357180834, 0.0, 0.0, 0.0, 0.0, 0.0, 1.7398814865437589E9, 0.0, 2025-02-18 12:24:46.543
25.0, 10.965386670082808, -5839.855650759768, 19.782200815621763, -1367.21205635136, 0.0, -0.01600000075995922, 0.7520000357180834, 0.0, 0.0, 0.0, 0.0, 0.0, 1.7398814865444899E9, 0.0, 2025-02-18 12:24:46.544
25.0, 10.314644077792764, -5949.14113731496, 9.920084632467479, -1337.6088782520965, 0.0, -0.01600000075995922, 0.7520000357180834, 0.0, 0.0, 0.0, 0.0, 0.0, 1.7398814865445273E9, 0.0, 2025-02-18 12:24:46.544
26.0, 2.8348441664129496, -6068.666469948832, 9.632112335879356, -1509.2216675188392, 0.0, -0.01600000075995922, 0.7520000357180834, 0.0, 0.0, 0.0, 0.0, 0.0, 1.7398814865452783E9, 0.0, 2025-02-18 12:24:46.545
26.0, 9.368449389003217, -6152.62722395407, 11.06449401890859, -1611.401344158221, 0.0, -0.01600000075995922, 0.7520000357180834, 0.0, 0.0, 0.0, 0.0, 0.0, 1.739881486547532E9, 0.0, 2025-02-18 12:24:46.547
27.0, 13.31404384225607, -6311.404676572885, 16.850119250360876, -1394.782598824706, 0.0, -0.01600000075995922, 0.7520000357180834, 0.0, 0.0, 0.0, 0.0, 0.0, 1.7398814865736928E9, 0.0, 2025-02-18 12:24:46.573
27.0, 7.554597910493612, -6411.265615239739, 13.783401286695153, -1358.1558886086568, 0.0, -0.01600000075995922, 0.7520000357180834, 0.0, 0.0, 0.0, 0.0, 0.0, 1.7398814865756023E9, 0.0, 2025-02-18 12:24:46.575
28.0, 4.585117345675826, -6541.161690450739, 8.768195446114987, -1524.903068033047, 0.0, -0.01600000075995922, 0.7520000357180834, 0.0, 0.0, 0.0, 0.0, 0.0, 1.739881486575645E9, 0.0, 2025-02-18 12:24:46.575
28.0, 5.867903030477464, -6647.187854194548, 11.06449401890859, -1600.1928639910184, 0.0, -0.01600000075995922, 0.7520000357180834, 0.0, 0.0, 0.0, 0.0, 0.0, 1.7398814865756607E9, 0.0, 2025-02-18 12:24:46.575
29.0, 12.704440149478614, -6796.933448420372, 12.923224296886474, -1387.7702864077874, 0.0, -0.01600000075995922, 0.7520000357180834, 0.0, 0.0, 0.0, 0.0, 0.0, 1.7398814866034536E9, 0.0, 2025-02-18 12:24:46.603
29.0, 7.0646710162982345, -6913.231247392483, 12.949403596576303, -1351.592364186421, 0.0, -0.01600000075995922, 0.7520000357180834, 0.0, 0.0, 0.0, 0.0, 0.0, 1.7398814866035068E9, 0.0, 2025-02-18 12:24:46.603
30.0, 2.2701192731037736, -7033.459681218024, 1.927918427158147, -1520.5760037843138, 0.0, -0.01600000075995922, 0.8800000417977571, 0.0, 0.0, 0.0, 0.0, 0.0, 1.7398814866037405E9, 0.0, 2025-02-18 12:24:46.603
30.0, 4.577637545764446, -7152.059388612863, 13.285994592588395, -1604.0374811454676, 0.0, -0.01600000075995922, 0.8800000417977571, 0.0, 0.0, 0.0, 0.0, 0.0, 1.739881486603772E9, 0.0, 2025-02-18 12:24:46.603
31.0, 10.378222377039492, -7294.549576924648, 17.242808745708317, -1387.2130413143896, 0.0, -0.01600000075995922, 0.8800000417977571, 0.0, 0.0, 0.0, 0.0, 0.0, 1.739881486604478E9, 0.0, 2025-02-18 12:24:46.604
31.0, 10.116429380141199, -7406.415594449267, 13.637545188423246, -1364.5997362323105, 0.0, -0.01600000075995922, 0.8800000417977571, 0.0, 0.0, 0.0, 0.0, 0.0, 1.739881486604506E9, 0.0, 2025-02-18 12:24:46.604
32.0, 0.07105809915810823, -7521.131415740121, 9.748049234505743, -1531.3992742560804, 0.0, -0.01600000075995922, 0.8800000417977571, 0.0, 0.0, 0.0, 0.0, 0.0, 1.7398814866052392E9, 0.0, 2025-02-18 12:24:46.605
32.0, 7.139469015412033, -7628.904112763237, 9.224463240709156, -1608.3234064946882, 0.0, -0.01600000075995922, 0.8800000417977571, 0.0, 0.0, 0.0, 0.0, 0.0, 1.7398814866052587E9, 0.0, 2025-02-18 12:24:46.605
33.0, 15.830996512435377, -7785.676979005802, 15.765548263210803, -1387.6693091089837, 0.0, -0.01600000075995922, 0.8800000417977571, 0.0, 0.0, 0.0, 0.0, 0.0, 1.7398814866336527E9, 0.0, 2025-02-18 12:24:46.633
33.0, 7.289065013639629, -7908.964650995098, 8.970150043722242, -1330.342252638191, 0.0, -0.01600000075995922, 0.8800000417977571, 0.0, 0.0, 0.0, 0.0, 0.0, 1.739881486633716E9, 0.0, 2025-02-18 12:24:46.633
34.0, 2.8049249667674303, -8036.803781230468, 8.020215454977006, -1484.9160577068105, 0.0, -0.01600000075995922, 0.8800000417977571, 0.0, 0.0, 0.0, 0.0, 0.0, 1.7398814866341467E9, 0.0, 2025-02-18 12:24:46.634
34.0, 9.996752581559122, -8131.101618713234, 10.26789532834664, -1571.6536874291487, 0.0, -0.01600000075995922, 0.8800000417977571, 0.0, 0.0, 0.0, 0.0, 0.0, 1.7398814866341877E9, 0.0, 2025-02-18 12:24:46.634
35.0, 19.245525171980262, -8282.0252814251, 16.984755648765713, -1371.4231837014668, 0.0, -0.01600000075995922, 0.8800000417977571, 0.0, 0.0, 0.0, 0.0, 0.0, 1.7398814866635876E9, 0.0, 2025-02-18 12:24:46.663
35.0, 8.556891098618507, -8377.435739144683, 15.025048071984202, -1361.0991898737848, 0.0, -0.01600000075995922, 0.8800000417977571, 0.0, 0.0, 0.0, 0.0, 0.0, 1.7398814866636536E9, 0.0, 2025-02-18 12:24:46.663
36.0, 3.975513652898371, -8504.803641985636, 5.5331819844432175, -1541.3361884383485, 0.0, -0.01600000075995922, 0.8800000417977571, 0.0, 0.0, 0.0, 0.0, 0.0, 1.7398814866637523E9, 0.0, 2025-02-18 12:24:46.663
36.0, 10.501639075577259, -8604.180263608228, 14.983909172471613, -1628.4365884563886, 0.0, -0.01600000075995922, 0.8800000417977571, 0.0, 0.0, 0.0, 0.0, 0.0, 1.7398814866637876E9, 0.0, 2025-02-18 12:24:46.663
37.0, 14.181700631976128, -8752.687950948719, 14.70715657575056, -1408.6202286607586, 0.0, -0.01600000075995922, 0.8800000417977571, 0.0, 0.0, 0.0, 0.0, 0.0, 1.7398814866644197E9, 0.0, 2025-02-18 12:24:46.664
37.0, 8.302577901631594, -8863.323541387916, 11.591819912660867, -1381.99775082618, 0.0, -0.01600000075995922, 0.8800000417977571, 0.0, 0.0, 0.0, 0.0, 0.0, 1.7398814866644533E9, 0.0, 2025-02-18 12:24:46.664
38.0, 2.6366294687613845, -9004.558993264567, 9.635852235835046, -1525.7744647227228, 0.0, -0.01600000075995922, 0.8800000417977571, 0.0, 0.0, 0.0, 0.0, 0.0, 1.7398814866652443E9, 0.0, 2025-02-18 12:24:46.665
38.0, 11.159861467778683, -9089.19292926183, 10.709203523118049, -1591.5088162939064, 0.0, -0.01600000075995922, 0.8800000417977571, 0.0, 0.0, 0.0, 0.0, 0.0, 1.7398814866652708E9, 0.0, 2025-02-18 12:24:46.665
39.0, 13.011111945845187, -9242.01272125123, 12.029388207476586, -1387.9348420058377, 0.0, -0.01600000075995922, 0.8800000417977571, 0.0, 0.0, 0.0, 0.0, 0.0, 1.739881486693586E9, 0.0, 2025-02-18 12:24:46.693
39.0, 8.347456701099873, -9354.361185870133, 10.993435919750482, -1356.3233376303688, 0.0, -0.01600000075995922, 0.8800000417977571, 0.0, 0.0, 0.0, 0.0, 0.0, 1.7398814866936388E9, 0.0, 2025-02-18 12:24:46.693
40.0, -0.7330203913152218, -9455.72930421913, 13.274774892721325, -1505.9754343573004, 0.0, -0.01600000075995922, 0.944000044837594, 0.0, 0.0, 0.0, 0.0, 0.0, 1.739881486695362E9, 0.0, 2025-02-18 12:24:46.695
40.0, 6.556044622324407, -9613.220231253188, 7.148818765301257, -1558.4368809857406, 0.0, -0.01600000075995922, 0.944000044837594, 0.0, 0.0, 0.0, 0.0, 0.0, 1.739881486697013E9, 0.0, 2025-02-18 12:24:46.697
41.0, 13.990965734235942, -9735.948788199108, 12.111666006501764, -1356.923591573257, 0.0, -0.01600000075995922, 0.944000044837594, 0.0, 0.0, 0.0, 0.0, 0.0, 1.7398814867234588E9, 0.0, 2025-02-18 12:24:46.723
41.0, 9.776098484173417, -9845.47736825142, 14.157391282264143, -1335.8698247727007, 0.0, -0.01600000075995922, 0.944000044837594, 0.0, 0.0, 0.0, 0.0, 0.0, 1.7398814867235253E9, 0.0, 2025-02-18 12:24:46.723
42.0, 2.9956598645076156, -9970.343278022017, 9.972443231847137, -1493.4916483052075, 0.0, -0.01600000075995922, 0.944000044837594, 0.0, 0.0, 0.0, 0.0, 0.0, 1.7398814867240713E9, 0.0, 2025-02-18 12:24:46.724
42.0, 9.387148888781667, -10060.370149755385, 7.152558665256947, -1563.4408671264537, 0.0, -0.01600000075995922, 0.944000044837594, 0.0, 0.0, 0.0, 0.0, 0.0, 1.7398814867241287E9, 0.0, 2025-02-18 12:24:46.724
43.0, 11.870442459359765, -10204.494674347807, 14.864232373889536, -1373.6484241751023, 0.0, -0.01600000075995922, 0.944000044837594, 0.0, 0.0, 0.0, 0.0, 0.0, 1.7398814867247827E9, 0.0, 2025-02-18 12:24:46.724
43.0, 6.642062321305275, -10310.103839246556, 15.425217367243022, -1358.5560579039156, 0.0, -0.01600000075995922, 0.944000044837594, 0.0, 0.0, 0.0, 0.0, 0.0, 1.7398814867248185E9, 0.0, 2025-02-18 12:24:46.724
44.0, 2.131742974743247, -10443.975428110454, 11.07197381881997, -1504.1428833790123, 0.0, -0.01600000075995922, 0.944000044837594, 0.0, 0.0, 0.0, 0.0, 0.0, 1.739881486725439E9, 0.0, 2025-02-18 12:24:46.725
44.0, 10.43432087637484, -10561.632680716459, 10.335213527549058, -1571.2609979338013, 0.0, -0.01600000075995922, 0.944000044837594, 0.0, 0.0, 0.0, 0.0, 0.0, 1.739881486725498E9, 0.0, 2025-02-18 12:24:46.725
45.0, 13.209326643496752, -10699.347016784828, 14.105032682884485, -1376.1541571454145, 0.0, -0.01600000075995922, 0.944000044837594, 0.0, 0.0, 0.0, 0.0, 0.0, 1.7398814867536454E9, 0.0, 2025-02-18 12:24:46.753
45.0, 9.585363586433232, -10794.663977005519, 14.766994975041598, -1358.7879317011684, 0.0, -0.01600000075995922, 0.944000044837594, 0.0, 0.0, 0.0, 0.0, 0.0, 1.7398814867536955E9, 0.0, 2025-02-18 12:24:46.753
46.0, 6.642062321305275, -10948.674927130807, 10.439930726308376, -1512.4417213806883, 0.0, -0.01600000075995922, 0.944000044837594, 0.0, 0.0, 0.0, 0.0, 0.0, 1.7398814867540164E9, 0.0, 2025-02-18 12:24:46.754
46.0, 4.2447864497080445, -11064.256535261404, 12.956883396487683, -1588.8796666250564, 0.0, -0.01600000075995922, 0.944000044837594, 0.0, 0.0, 0.0, 0.0, 0.0, 1.7398814867540536E9, 0.0, 2025-02-18 12:24:46.754
47.0, 14.09194303303957, -11194.031063723844, 12.470696402247995, -1405.478712697979, 0.0, -0.01600000075995922, 0.944000044837594, 0.0, 0.0, 0.0, 0.0, 0.0, 1.7398814867836654E9, 0.0, 2025-02-18 12:24:46.783
47.0, 8.579330498352647, -11294.310871185735, 12.156544805970043, -1396.2467696573585, 0.0, -0.01600000075995922, 0.944000044837594, 0.0, 0.0, 0.0, 0.0, 0.0, 1.7398814867837903E9, 0.0, 2025-02-18 12:24:46.783
48.0, 0.08975759893655777, -11429.207192637492, 9.88268563291058, -1545.6744723869488, 0.0, -0.01600000075995922, 0.944000044837594, 0.0, 0.0, 0.0, 0.0, 0.0, 1.7398814867839057E9, 0.0, 2025-02-18 12:24:46.783
48.0, 9.405848388560116, -11543.057227088604, 12.781108098570257, -1606.1654842202552, 0.0, -0.01600000075995922, 0.944000044837594, 0.0, 0.0, 0.0, 0.0, 0.0, 1.7398814867839863E9, 0.0, 2025-02-18 12:24:46.783
49.0, 11.100023068487644, -11678.576241882984, 17.751435139682144, -1415.6138415778987, 0.0, -0.01600000075995922, 0.944000044837594, 0.0, 0.0, 0.0, 0.0, 0.0, 1.7398814867845795E9, 0.0, 2025-02-18 12:24:46.784
49.0, 8.579330498352647, -11784.922167073004, 9.145925341639668, -1394.4665772784501, 0.0, -0.01600000075995922, 0.944000044837594, 0.0, 0.0, 0.0, 0.0, 0.0, 1.7398814867846327E9, 0.0, 2025-02-18 12:24:46.784
50.0, -0.13837629836052656, -11903.43772671884, 7.799561357591301, -1530.221205770038, 0.0, -0.01600000075995922, 0.9760000463575125, 0.0, 0.0, 0.0, 0.0, 0.0, 1.7398814867855248E9, 0.0, 2025-02-18 12:24:46.785
50.0, 9.162754891440272, -12020.208623035345, 11.47214311407879, -1594.5755342575721, 0.0, -0.01600000075995922, 0.9760000463575125, 0.0, 0.0, 0.0, 0.0, 0.0, 1.7398814867855666E9, 0.0, 2025-02-18 12:24:46.785
51.0, 17.872981888242066, -12170.735856351908, 10.25667562847957, -1401.9482471398078, 0.0, -0.01600000075995922, 0.9760000463575125, 0.0, 0.0, 0.0, 0.0, 0.0, 1.7398814868135345E9, 0.0, 2025-02-18 12:24:46.813
51.0, 9.177714491263032, -12254.492785809562, 9.48251633765176, -1392.562968201004, 0.0, -0.01600000075995922, 0.9760000463575125, 0.0, 0.0, 0.0, 0.0, 0.0, 1.7398814868135738E9, 0.0, 2025-02-18 12:24:46.813
52.0, 1.6679953802376986, -12387.276063786354, 9.153405141551048, -1537.8543415796012, 0.0, -0.01600000075995922, 0.9760000463575125, 0.0, 0.0, 0.0, 0.0, 0.0, 1.7398814868139312E9, 0.0, 2025-02-18 12:24:46.813
52.0, 10.991565969772637, -12482.636032856535, 11.939630608540028, -1590.9553111004643, 0.0, -0.01600000075995922, 0.9760000463575125, 0.0, 0.0, 0.0, 0.0, 0.0, 1.7398814868139782E9, 0.0, 2025-02-18 12:24:46.813
53.0, 13.089649844914675, -12629.644020314794, 18.458276231307536, -1404.0874699144624, 0.0, -0.01600000075995922, 0.9760000463575125, 0.0, 0.0, 0.0, 0.0, 0.0, 1.7398814868433952E9, 0.0, 2025-02-18 12:24:46.843
53.0, 9.910734882578254, -12724.7403264381, 12.624032300431281, -1379.9333260506392, 0.0, -0.01600000075995922, 0.9760000463575125, 0.0, 0.0, 0.0, 0.0, 0.0, 1.7398814868455918E9, 0.0, 2025-02-18 12:24:46.845
54.0, 4.1251096511259675, -12883.66924500512, 12.799807598348707, -1504.8721638703719, 0.0, -0.01600000075995922, 0.9760000463575125, 0.0, 0.0, 0.0, 0.0, 0.0, 1.7398814868456352E9, 0.0, 2025-02-18 12:24:46.845
54.0, 4.196167750284076, -12985.024273704272, 8.861692945007235, -1533.2785739838146, 0.0, -0.01600000075995922, 0.9760000463575125, 0.0, 0.0, 0.0, 0.0, 0.0, 1.739881486845652E9, 0.0, 2025-02-18 12:24:46.845
55.0, 13.942347034811974, -13129.657424690668, 13.89185838541016, -1338.7925565880723, 0.0, -0.01600000075995922, 0.9760000463575125, 0.0, 0.0, 0.0, 0.0, 0.0, 1.7398814868456695E9, 0.0, 2025-02-18 12:24:46.845
55.0, 7.842570207081735, -13236.844827370718, 9.03746824292466, -1317.836027186364, 0.0, -0.01600000075995922, 0.9760000463575125, 0.0, 0.0, 0.0, 0.0, 0.0, 1.739881486845684E9, 0.0, 2025-02-18 12:24:46.845
56.0, 2.060684875585139, -13365.345919898245, 8.940230844076723, -1464.4139261497185, 0.0, -0.01600000075995922, 0.9760000463575125, 0.0, 0.0, 0.0, 0.0, 0.0, 1.7398814868457017E9, 0.0, 2025-02-18 12:24:46.845
56.0, 8.104363203980029, -13482.64788200846, 14.247148881200701, -1525.2265693792142, 0.0, -0.01600000075995922, 0.9760000463575125, 0.0, 0.0, 0.0, 0.0, 0.0, 1.7398814868457196E9, 0.0, 2025-02-18 12:24:46.845
57.0, 12.05369755718857, -13615.780840631109, 16.36393225612119, -1368.8202133323066, 0.0, -0.01600000075995922, 0.9760000463575125, 0.0, 0.0, 0.0, 0.0, 0.0, 1.7398814868734436E9, 0.0, 2025-02-18 12:24:46.873
57.0, 8.321277401410043, -13702.503510753624, 11.662878011818975, -1376.0830990462564, 0.0, -0.01600000075995922, 0.9760000463575125, 0.0, 0.0, 0.0, 0.0, 0.0, 1.7398814868734877E9, 0.0, 2025-02-18 12:24:46.873
58.0, 7.831350507214665, -13824.048389363568, 8.540061548817903, -1526.8908248594962, 0.0, -0.01600000075995922, 0.9760000463575125, 0.0, 0.0, 0.0, 0.0, 0.0, 1.7398814868740244E9, 0.0, 2025-02-18 12:24:46.874
58.0, 8.295098101720214, -13956.732559991535, 15.032527871895581, -1586.9854072974995, 0.0, -0.01600000075995922, 0.9760000463575125, 0.0, 0.0, 0.0, 0.0, 0.0, 1.7398814868740633E9, 0.0, 2025-02-18 12:24:46.874
59.0, 10.913028070703149, -14088.601432429161, 14.763255075085908, -1412.208662668243, 0.0, -0.01600000075995922, 0.9760000463575125, 0.0, 0.0, 0.0, 0.0, 0.0, 1.739881486903493E9, 0.0, 2025-02-18 12:24:46.903
59.0, 7.558337810449302, -14194.64442572277, 16.782801051158458, -1409.1550343544222, 0.0, -0.01600000075995922, 0.9760000463575125, 0.0, 0.0, 0.0, 0.0, 0.0, 1.7398814869035833E9, 0.0, 2025-02-18 12:24:46.903
60.0, -1.3388841841369867, -14339.11863096105, 7.582647160161287, -1532.164083797019, 0.0, -0.01600000075995922, 0.9920000471174717, 0.0, 0.0, 0.0, 0.0, 0.0, 1.7398814869039085E9, 0.0, 2025-02-18 12:24:46.903
60.0, 10.49415927566588, -14465.231797366869, 16.109619059134275, -1551.9238452129066, 0.0, -0.01600000075995922, 0.9920000471174717, 0.0, 0.0, 0.0, 0.0, 0.0, 1.7398814869039311E9, 0.0, 2025-02-18 12:24:46.903
61.0, 12.169634455814958, -14617.04555626819, 17.45972294313833, -1373.3062233291566, 0.0, -0.01600000075995922, 0.9920000471174717, 0.0, 0.0, 0.0, 0.0, 0.0, 1.739881486904508E9, 0.0, 2025-02-18 12:24:46.904
61.0, 8.325017301365733, -14728.114975102246, 14.430403979029506, -1367.7805211446248, 0.0, -0.01600000075995922, 0.9920000471174717, 0.0, 0.0, 0.0, 0.0, 0.0, 1.7398814869045308E9, 0.0, 2025-02-18 12:24:46.904
62.0, 3.1564755626022816, -14859.858560891356, 10.503509025555104, -1516.3443069844507, 0.0, -0.01600000075995922, 0.9920000471174717, 0.0, 0.0, 0.0, 0.0, 0.0, 1.7398814869053056E9, 0.0, 2025-02-18 12:24:46.905
62.0, 8.04452480468899, -14991.25246603461, 14.29202768066898, -1568.8020137129351, 0.0, -0.01600000075995922, 0.9920000471174717, 0.0, 0.0, 0.0, 0.0, 0.0, 1.7398814869053416E9, 0.0, 2025-02-18 12:24:46.905
63.0, 13.568357039242983, -15122.896944474895, 16.629465152975172, -1405.8246534438804, 0.0, -0.01600000075995922, 0.9920000471174717, 0.0, 0.0, 0.0, 0.0, 0.0, 1.7398814869334948E9, 0.0, 2025-02-18 12:24:46.933
63.0, 6.888895718380809, -15211.332488777116, 13.121438994538039, -1400.3812290583737, 0.0, -0.01600000075995922, 0.9920000471174717, 0.0, 0.0, 0.0, 0.0, 0.0, 1.739881486933546E9, 0.0, 2025-02-18 12:24:46.933
64.0, 5.819284331053495, -15349.336667092051, 7.85939975688234, -1523.756788696628, 0.0, -0.01600000075995922, 0.9920000471174717, 0.0, 0.0, 0.0, 0.0, 0.0, 1.739881486934044E9, 0.0, 2025-02-18 12:24:46.934
64.0, 8.111843003891408, -15478.101422566455, 13.10273949475959, -1550.7345570269972, 0.0, -0.01600000075995922, 0.9920000471174717, 0.0, 0.0, 0.0, 0.0, 0.0, 1.739881486934075E9, 0.0, 2025-02-18 12:24:46.934
65.0, 12.745579048991203, -15621.777159164194, 15.574813365470618, -1382.1136877248064, 0.0, -0.01600000075995922, 0.9920000471174717, 0.0, 0.0, 0.0, 0.0, 0.0, 1.7398814869636023E9, 0.0, 2025-02-18 12:24:46.963
65.0, 11.29823776613921, -15709.711556872353, 11.08693341864273, -1380.0361732994206, 0.0, -0.01600000075995922, 0.9920000471174717, 0.0, 0.0, 0.0, 0.0, 0.0, 1.7398814869636443E9, 0.0, 2025-02-18 12:24:46.963
66.0, 0.39268949534744024, -15843.781360433903, 6.931904567871243, -1520.1216059396975, 0.0, -0.01600000075995922, 0.9920000471174717, 0.0, 0.0, 0.0, 0.0, 0.0, 1.7398814869655209E9, 0.0, 2025-02-18 12:24:46.965
66.0, 8.175421303138137, -15973.05474230228, 12.30240090424195, -1543.2734566153958, 0.0, -0.01600000075995922, 0.9920000471174717, 0.0, 0.0, 0.0, 0.0, 0.0, 1.7398814869655461E9, 0.0, 2025-02-18 12:24:46.965
67.0, 13.889988435432315, -16098.947254610714, 11.363686015363783, -1378.25785087049, 0.0, -0.01600000075995922, 0.9920000471174717, 0.0, 0.0, 0.0, 0.0, 0.0, 1.739881486967132E9, 0.0, 2025-02-18 12:24:46.967
67.0, 11.934020758606493, -16185.340813537128, 10.26041552843526, -1393.008016295731, 0.0, -0.01600000075995922, 0.9920000471174717, 0.0, 0.0, 0.0, 0.0, 0.0, 1.7398814869671571E9, 0.0, 2025-02-18 12:24:46.967
68.0, 6.294251625426114, -16335.884876403492, 6.4195382739417255, -1505.8333181589842, 0.0, -0.01600000075995922, 0.9920000471174717, 0.0, 0.0, 0.0, 0.0, 0.0, 1.7398814869671807E9, 0.0, 2025-02-18 12:24:46.967
68.0, 9.173974591307342, -16463.363106293138, 11.741415910888463, -1525.312587078195, 0.0, -0.01600000075995922, 0.9920000471174717, 0.0, 0.0, 0.0, 0.0, 0.0, 1.739881486967202E9, 0.0, 2025-02-18 12:24:46.967
69.0, 11.343116565607488, -16582.98380637588, 13.07282029511407, -1373.3604518785141, 0.0, -0.01600000075995922, 0.9920000471174717, 0.0, 0.0, 0.0, 0.0, 0.0, 1.739881486993351E9, 0.0, 2025-02-18 12:24:46.993
69.0, 9.454467087984085, -16680.638204068877, 10.410011526662856, -1371.638227948919, 0.0, -0.01600000075995922, 0.9920000471174717, 0.0, 0.0, 0.0, 0.0, 0.0, 1.7398814869933937E9, 0.0, 2025-02-18 12:24:46.993
70.0, 6.357829924672842, -16835.314856386278, 6.756129269953817, -1492.4070773180574, 0.0, -0.01600000075995922, 0.9920000471174717, 0.0, 0.0, 0.0, 0.0, 0.0, 1.739881486994262E9, 0.0, 2025-02-18 12:24:46.994
70.0, 10.767171972431242, -16960.657603401225, 11.85735280951485, -1520.8658460308798, 0.0, -0.01600000075995922, 0.9920000471174717, 0.0, 0.0, 0.0, 0.0, 0.0, 1.7398814869943125E9, 0.0, 2025-02-18 12:24:46.994
71.0, 14.750165425240993, -17089.485937174875, 15.241962269414216, -1364.003222189378, 0.0, -0.01600000075995922, 0.9920000471174717, 0.0, 0.0, 0.0, 0.0, 0.0, 1.7398814870238633E9, 0.0, 2025-02-18 12:24:47.023
71.0, 4.977806841023266, -17175.049238311127, 10.039761431049556, -1378.4205365185626, 0.0, -0.01600000075995922, 0.9920000471174717, 0.0, 0.0, 0.0, 0.0, 0.0, 1.73988148702391E9, 0.0, 2025-02-18 12:24:47.023
72.0, 3.3958291597664356, -17289.136756409425, 8.510142349172384, -1516.508862582501, 0.0, -0.01600000075995922, 0.9920000471174717, 0.0, 0.0, 0.0, 0.0, 0.0, 1.739881487024099E9, 0.0, 2025-02-18 12:24:47.024
72.0, 12.700700249522924, -17463.849922739435, 18.37973833223805, -1529.316149980761, 0.0, -0.01600000075995922, 0.9920000471174717, 0.0, 0.0, 0.0, 0.0, 0.0, 1.7398814870241177E9, 0.0, 2025-02-18 12:24:47.024
73.0, 15.29993071872741, -17577.266128795687, 15.406517867464572, -1407.7394822211936, 0.0, -0.01600000075995922, 0.9920000471174717, 0.0, 0.0, 0.0, 0.0, 0.0, 1.7398814870245287E9, 0.0, 2025-02-18 12:24:47.024
73.0, 8.02956520486623, -17657.279418397695, 8.64851864753291, -1436.970540274866, 0.0, -0.01600000075995922, 0.9920000471174717, 0.0, 0.0, 0.0, 0.0, 0.0, 1.7398814870245552E9, 0.0, 2025-02-18 12:24:47.024
74.0, 2.3187379725277424, -17780.892461683135, 5.892212380189449, -1560.772448508069, 0.0, -0.01600000075995922, 0.9920000471174717, 0.0, 0.0, 0.0, 0.0, 0.0, 1.739881487025414E9, 0.0, 2025-02-18 12:24:47.025
74.0, 8.47461329959333, -17922.989960499573, 14.800654074642807, -1588.9133257246576, 0.0, -0.01600000075995922, 0.9920000471174717, 0.0, 0.0, 0.0, 0.0, 0.0, 1.7398814870254765E9, 0.0, 2025-02-18 12:24:47.025
75.0, 9.533004987053573, -18031.85470830975, 16.68182375235483, -1436.9836299247108, 0.0, -0.01600000075995922, 0.9920000471174717, 0.0, 0.0, 0.0, 0.0, 0.0, 1.7398814870537355E9, 0.0, 2025-02-18 12:24:47.053
75.0, 10.0790303805843, -18127.265166029334, 13.338353191968054, -1446.7298092092387, 0.0, -0.01600000075995922, 0.9920000471174717, 0.0, 0.0, 0.0, 0.0, 0.0, 1.7398814870538735E9, 0.0, 2025-02-18 12:24:47.053
76.0, 5.823024231009185, -18253.200687187258, 5.858553280588239, -1569.817396550905, 0.0, -0.01600000075995922, 0.9920000471174717, 0.0, 0.0, 0.0, 0.0, 0.0, 1.7398814870544367E9, 0.0, 2025-02-18 12:24:47.054
76.0, 12.394028453156352, -18410.571937422734, 12.515575201716274, -1577.4299629107118, 0.0, -0.01600000075995922, 0.9920000471174717, 0.0, 0.0, 0.0, 0.0, 0.0, 1.7398814870544758E9, 0.0, 2025-02-18 12:24:47.054
77.0, 15.419607517309487, -18540.286627485882, 16.573366653639823, -1411.2998669790104, 0.0, -0.01600000075995922, 0.9920000471174717, 0.0, 0.0, 0.0, 0.0, 0.0, 1.7398814870835469E9, 0.0, 2025-02-18 12:24:47.083
77.0, 3.541685258038342, -18619.540717396885, 16.33401305647567, -1405.8078238940798, 0.0, -0.01600000075995922, 0.9920000471174717, 0.0, 0.0, 0.0, 0.0, 0.0, 1.7398814870835912E9, 0.0, 2025-02-18 12:24:47.083
78.0, -0.6283031925559044, -18775.313160401303, 9.0599076426588, -1518.6780045568012, 0.0, -0.01600000075995922, 0.9920000471174717, 0.0, 0.0, 0.0, 0.0, 0.0, 1.739881487083904E9, 0.0, 2025-02-18 12:24:47.083
78.0, 8.007125805132091, -18922.38472615881, 12.25004230486229, -1520.1608748892322, 0.0, -0.01600000075995922, 0.9920000471174717, 0.0, 0.0, 0.0, 0.0, 0.0, 1.7398814870839238E9, 0.0, 2025-02-18 12:24:47.083
79.0, 12.005078857764602, -19040.389789460693, 16.64442475279793, -1357.7407597135752, 0.0, -0.01600000075995922, 0.9920000471174717, 0.0, 0.0, 0.0, 0.0, 0.0, 1.739881487086109E9, 0.0, 2025-02-18 12:24:47.086
79.0, 6.04367832839489, -19150.958061700687, 11.591819912660867, -1382.0314099257812, 0.0, -0.01600000075995922, 0.9920000471174717, 0.0, 0.0, 0.0, 0.0, 0.0, 1.739881487086134E9, 0.0, 2025-02-18 12:24:47.086
80.0, 1.5183993820101023, -19258.826126172673, 10.828880321700126, -1491.6067387275398, 0.0, -0.01600000075995922, 0.9920000471174717, 0.0, 0.0, 0.0, 0.0, 0.0, 1.7398814870878541E9, 0.0, 2025-02-18 12:24:47.087
80.0, 8.83364369533956, -19392.355514190625, 14.613659076858312, -1507.0394358946942, 0.0, -0.01600000075995922, 0.9920000471174717, 0.0, 0.0, 0.0, 0.0, 0.0, 1.7398814870878916E9, 0.0, 2025-02-18 12:24:47.087
81.0, 11.081323568709195, -19517.971273902338, 15.780507863033563, -1361.8303403151222, 0.0, -0.01600000075995922, 0.9920000471174717, 0.0, 0.0, 0.0, 0.0, 0.0, 1.7398814871135817E9, 0.0, 2025-02-18 12:24:47.113
81.0, 11.784424760378897, -19605.569080614485, 12.26126200472936, -1384.5090936464258, 0.0, -0.01600000075995922, 0.9920000471174717, 0.0, 0.0, 0.0, 0.0, 0.0, 1.7398814871136456E9, 0.0, 2025-02-18 12:24:47.113
82.0, 2.367356671951711, -19719.847333610523, 6.004409378860146, -1508.6251534759067, 0.0, -0.01600000075995922, 0.9920000471174717, 0.0, 0.0, 0.0, 0.0, 0.0, 1.7398814871141136E9, 0.0, 2025-02-18 12:24:47.114
82.0, 3.8520969543606043, -19851.633928249124, 11.524501713458449, -1531.9415597496554, 0.0, -0.01600000075995922, 0.9920000471174717, 0.0, 0.0, 0.0, 0.0, 0.0, 1.7398814871141553E9, 0.0, 2025-02-18 12:24:47.114
83.0, 11.750765660777688, -19981.849764906336, 16.984755648765713, -1396.8002748508006, 0.0, -0.01600000075995922, 0.9920000471174717, 0.0, 0.0, 0.0, 0.0, 0.0, 1.7398814871436756E9, 0.0, 2025-02-18 12:24:47.143
83.0, 13.037291245535016, -20084.455790140666, 15.298060768749565, -1422.773880043067, 0.0, -0.01600000075995922, 0.9920000471174717, 0.0, 0.0, 0.0, 0.0, 0.0, 1.7398814871437364E9, 0.0, 2025-02-18 12:24:47.143
84.0, 4.0390919521451, -20223.211688346695, 5.959530579391867, -1535.8198360037059, 0.0, -0.01600000075995922, 0.9920000471174717, 0.0, 0.0, 0.0, 0.0, 0.0, 1.739881487143943E9, 0.0, 2025-02-18 12:24:47.143
84.0, 8.785024995915592, -20369.714789310936, 13.712343187537044, -1545.5791049380787, 0.0, -0.01600000075995922, 0.9920000471174717, 0.0, 0.0, 0.0, 0.0, 0.0, 1.739881487143986E9, 0.0, 2025-02-18 12:24:47.143
85.0, 13.28786454256624, -20487.211226218846, 11.737676010932773, -1398.6272159791552, 0.0, -0.01600000075995922, 0.9920000471174717, 0.0, 0.0, 0.0, 0.0, 0.0, 1.7398814871447444E9, 0.0, 2025-02-18 12:24:47.144
85.0, 7.954767205752432, -20592.809171417728, 11.322547115851194, -1423.8453613803722, 0.0, -0.01600000075995922, 0.9920000471174717, 0.0, 0.0, 0.0, 0.0, 0.0, 1.739881487144812E9, 0.0, 2025-02-18 12:24:47.144
86.0, 1.8961292775347829, -20716.104323206935, 10.585786824580282, -1536.1096782502718, 0.0, -0.01600000075995922, 0.9920000471174717, 0.0, 0.0, 0.0, 0.0, 0.0, 1.739881487145394E9, 0.0, 2025-02-18 12:24:47.145
86.0, 9.121615991927683, -20865.113157141488, 14.29950748058036, -1528.9178506354801, 0.0, -0.01600000075995922, 0.9920000471174717, 0.0, 0.0, 0.0, 0.0, 0.0, 1.7398814871454458E9, 0.0, 2025-02-18 12:24:47.145
87.0, 13.605756038799882, -20990.463383956347, 15.46635626675561, -1379.9576354003511, 0.0, -0.01600000075995922, 0.9920000471174717, 0.0, 0.0, 0.0, 0.0, 0.0, 1.7398814871733484E9, 0.0, 2025-02-18 12:24:47.173
87.0, 5.430334735661745, -21078.674534261227, 8.988849543500692, -1413.295103605371, 0.0, -0.01600000075995922, 0.9920000471174717, 0.0, 0.0, 0.0, 0.0, 0.0, 1.7398814871733804E9, 0.0, 2025-02-18 12:24:47.173
88.0, 3.982993452809751, -21211.098781842273, 7.328333963174373, -1525.5743800750934, 0.0, -0.01600000075995922, 0.9920000471174717, 0.0, 0.0, 0.0, 0.0, 0.0, 1.739881487174082E9, 0.0, 2025-02-18 12:24:47.174
88.0, 11.63856866210699, -21382.442298312206, 9.87146593304351, -1534.7838837159798, 0.0, -0.01600000075995922, 0.9920000471174717, 0.0, 0.0, 0.0, 0.0, 0.0, 1.7398814871741064E9, 0.0, 2025-02-18 12:24:47.174
89.0, 9.24503269046545, -21473.78187493002, 13.125178894493729, -1395.734403363429, 0.0, -0.01600000075995922, 0.9920000471174717, 0.0, 0.0, 0.0, 0.0, 0.0, 1.7398814872038257E9, 0.0, 2025-02-18 12:24:47.203
89.0, 4.701054244302213, -21563.967692411505, 13.622585588600487, -1415.9822217235342, 0.0, -0.01600000075995922, 0.9920000471174717, 0.0, 0.0, 0.0, 0.0, 0.0, 1.7398814872038932E9, 0.0, 2025-02-18 12:24:47.203
90.0, 5.280738737434149, -21716.867892249953, 7.522808760870248, -1541.3474081382155, 0.0, -0.01600000075995922, 0.9920000471174717, 0.0, 0.0, 0.0, 0.0, 0.0, 1.7398814872040577E9, 0.0, 2025-02-18 12:24:47.204
90.0, 12.031258157454431, -21849.937272573356, 16.70426315208897, -1545.4482084396295, 0.0, -0.01600000075995922, 0.9920000471174717, 0.0, 0.0, 0.0, 0.0, 0.0, 1.7398814872040844E9, 0.0, 2025-02-18 12:24:47.204
91.0, 16.16010770853609, -21974.834971493576, 16.405071155633777, -1407.3262232760899, 0.0, -0.01600000075995922, 0.9920000471174717, 0.0, 0.0, 0.0, 0.0, 0.0, 1.7398814872044077E9, 0.0, 2025-02-18 12:24:47.204
91.0, 6.915075018070638, -22067.915471540764, 9.905125032644719, -1438.6927642044611, 0.0, -0.01600000075995922, 0.9920000471174717, 0.0, 0.0, 0.0, 0.0, 0.0, 1.7398814872044415E9, 0.0, 2025-02-18 12:24:47.204
92.0, 2.1953212739899755, -22213.369530567434, 6.789788369555026, -1545.163976042997, 0.0, -0.01600000075995922, 0.9920000471174717, 0.0, 0.0, 0.0, 0.0, 0.0, 1.7398814872054217E9, 0.0, 2025-02-18 12:24:47.205
92.0, 4.596337045542896, -22367.352431443054, 15.399038067553192, -1529.8864847240038, 0.0, -0.01600000075995922, 0.9920000471174717, 0.0, 0.0, 0.0, 0.0, 0.0, 1.7398814872071471E9, 0.0, 2025-02-18 12:24:47.207
93.0, 9.959353582002223, -22464.855363187846, 17.14931124681607, -1385.6572429328226, 0.0, -0.01600000075995922, 0.9920000471174717, 0.0, 0.0, 0.0, 0.0, 0.0, 1.7398814872338476E9, 0.0, 2025-02-18 12:24:47.233
93.0, 13.572096939198673, -22563.818725865334, 12.863385897595435, -1410.205946241971, 0.0, -0.01600000075995922, 0.9920000471174717, 0.0, 0.0, 0.0, 0.0, 0.0, 1.739881487233909E9, 0.0, 2025-02-18 12:24:47.233
94.0, 3.493066558614373, -22697.05079183681, 7.410611762199551, -1508.958004571963, 0.0, -0.01600000075995922, 0.9920000471174717, 0.0, 0.0, 0.0, 0.0, 0.0, 1.7398814872343652E9, 0.0, 2025-02-18 12:24:47.234
94.0, 7.158168515190482, -22851.594677705783, 10.402531726751477, -1500.2215982754715, 0.0, -0.01600000075995922, 0.9920000471174717, 0.0, 0.0, 0.0, 0.0, 0.0, 1.7398814872344475E9, 0.0, 2025-02-18 12:24:47.234
95.0, 15.819776812568307, -22959.864781423006, 19.93179681384936, -1369.7140494217165, 0.0, -0.01600000075995922, 0.9920000471174717, 0.0, 0.0, 0.0, 0.0, 0.0, 1.7398814872634192E9, 0.0, 2025-02-18 12:24:47.263
95.0, 9.869595983065665, -23045.58141845744, 14.69593687588349, -1408.4182740631513, 0.0, -0.01600000075995922, 0.9920000471174717, 0.0, 0.0, 0.0, 0.0, 0.0, 1.739881487263477E9, 0.0, 2025-02-18 12:24:47.263
96.0, 4.83195074275136, -23188.97853250848, 9.654551735613495, -1517.3877390720882, 0.0, -0.01600000075995922, 0.9920000471174717, 0.0, 0.0, 0.0, 0.0, 0.0, 1.7398814872638726E9, 0.0, 2025-02-18 12:24:47.263
96.0, 10.396921876817942, -23347.96915942477, 12.455736802425236, -1502.121467452962, 0.0, -0.01600000075995922, 0.9920000471174717, 0.0, 0.0, 0.0, 0.0, 0.0, 1.7398814872638993E9, 0.0, 2025-02-18 12:24:47.263
97.0, 11.492712563835084, -23459.45183720393, 15.589772965293378, -1367.0998593526892, 0.0, -0.01600000075995922, 0.9920000471174717, 0.0, 0.0, 0.0, 0.0, 0.0, 1.7398814872645912E9, 0.0, 2025-02-18 12:24:47.264
97.0, 9.25625239033252, -23545.067496939562, 12.149065006058663, -1399.3864156701602, 0.0, -0.01600000075995922, 0.9920000471174717, 0.0, 0.0, 0.0, 0.0, 0.0, 1.7398814872646327E9, 0.0, 2025-02-18 12:24:47.264
98.0, 3.8408772544935346, -23693.52469563065, 10.582046924624592, -1505.1881854166277, 0.0, -0.01600000075995922, 0.9920000471174717, 0.0, 0.0, 0.0, 0.0, 0.0, 1.73988148726541E9, 0.0, 2025-02-18 12:24:47.265
98.0, 9.28617158997804, -23841.658392975572, 12.717529799323529, -1473.7692858888768, 0.0, -0.01600000075995922, 0.9920000471174717, 0.0, 0.0, 0.0, 0.0, 0.0, 1.7398814872654376E9, 0.0, 2025-02-18 12:24:47.265
99.0, 13.70299343764782, -23975.109243094455, 12.983062696177512, -1352.8209213218652, 0.0, -0.01600000075995922, 0.9920000471174717, 0.0, 0.0, 0.0, 0.0, 0.0, 1.7398814872935536E9, 0.0, 2025-02-18 12:24:47.293
99.0, 8.616729497909546, -24042.601347644813, 14.729595975484699, -1429.9451382081024, 0.0, -0.01600000075995922, 0.9920000471174717, 0.0, 0.0, 0.0, 0.0, 0.0, 1.7398814872936096E9, 0.0, 2025-02-18 12:24:47.293
100.0, 3.8072181548923254, -24165.339254340623, 7.743462858255953, -1562.2403592406772, 0.0, -0.01600000075995922, 0.9920000471174717, 0.0, 0.0, 0.0, 0.0, 0.0, 1.7398814872937796E9, 0.0, 2025-02-18 12:24:47.293
100.0, 6.361569824628532, -24340.325433367398, 10.776521722320467, -1550.2240606830455, 0.0, -0.01600000075995922, 0.9920000471174717, 0.0, 0.0, 0.0, 0.0, 0.0, 1.7398814872938085E9, 0.0, 2025-02-18 12:24:47.293
0.0, 15.875875311903656, -413.6647242489271, 18.37225853232667, 544.8117959951051, 0.0, -0.01600000075995922, 0.9920000471174717, 0.0, 0.0, 0.0, 0.0, 0.0, 1.7398814872946708E9, 0.0, 2025-02-18 12:24:47.294
1.0, 9.779838384129107, -501.70757905580103, 17.594359341543168, 521.8562900670804, 0.0, -0.01600000075995922, 0.9920000471174717, 0.0, 0.0, 0.0, 0.0, 0.0, 1.7398814873233025E9, 0.0, 2025-02-18 12:24:47.323
1.0, 0.29919199645519257, -659.1854164400138, 8.498922649305314, 436.4444548790343, 0.0, -0.01600000075995922, 0.9920000471174717, 0.0, 0.0, 0.0, 0.0, 0.0, 1.73988148732335E9, 0.0, 2025-02-18 12:24:47.323
2.0, 4.43926124740392, -824.6311106798239, 11.386125415097922, 455.95551294786856, 0.0, -0.01600000075995922, 0.9920000471174717, 0.0, 0.0, 0.0, 0.0, 0.0, 1.739881487323716E9, 0.0, 2025-02-18 12:24:47.323
2.0, 11.552550963126123, -922.6875476180576, 13.663724488113075, 585.3223923151381, 0.0, -0.01600000075995922, 0.9920000471174717, 0.0, 0.0, 0.0, 0.0, 0.0, 1.7398814873237429E9, 0.0, 2025-02-18 12:24:47.323
3.0, 5.781885331496596, -996.0812142984942, 12.25378220481798, 531.9054012480192, 0.0, -0.01600000075995922, 0.9920000471174717, 0.0, 0.0, 0.0, 0.0, 0.0, 1.739881487324674E9, 0.0, 2025-02-18 12:24:47.324
3.0, 6.1783147267997265, -1136.4976280848496, 7.799561357591301, 436.35843718005344, 0.0, -0.01600000075995922, 0.9920000471174717, 0.0, 0.0, 0.0, 0.0, 0.0, 1.7398814873247187E9, 0.0, 2025-02-18 12:24:47.324
4.0, 9.966833381913602, -1315.3209444661625, 10.769041922409087, 454.11174226971343, 0.0, -0.01600000075995922, 0.9920000471174717, 0.0, 0.0, 0.0, 0.0, 0.0, 1.7398814873536465E9, 0.0, 2025-02-18 12:24:47.353
4.0, 10.325863777659833, -1395.8335107122548, 17.620538641232997, 561.0728810024448, 0.0, -0.01600000075995922, 0.9920000471174717, 0.0, 0.0, 0.0, 0.0, 0.0, 1.7398814873537068E9, 0.0, 2025-02-18 12:24:47.353
5.0, 5.594890333712101, -1484.8674390073866, 9.957483632024378, 515.4386217431165, 0.0, -0.01600000075995922, 0.9920000471174717, 0.0, 0.0, 0.0, 0.0, 0.0, 1.7398814873556323E9, 0.0, 2025-02-18 12:24:47.355
5.0, 3.0741977635771036, -1648.284237521235, 8.386725650634617, 410.9196376814507, 0.0, -0.01600000075995922, 0.9920000471174717, 0.0, 0.0, 0.0, 0.0, 0.0, 1.7398814873556788E9, 0.0, 2025-02-18 12:24:47.355
6.0, 12.07239705696702, -1794.1889544925652, 7.5041092610917985, 440.54712513042614, 0.0, -0.01600000075995922, 0.9920000471174717, 0.0, 0.0, 0.0, 0.0, 0.0, 1.7398814873577757E9, 0.0, 2025-02-18 12:24:47.357
6.0, 13.65437473822385, -1907.7996353465132, 11.591819912660867, 555.956697863061, 0.0, -0.01600000075995922, 0.9920000471174717, 0.0, 0.0, 0.0, 0.0, 0.0, 1.7398814873578615E9, 0.0, 2025-02-18 12:24:47.357
7.0, 9.039338192902505, -1987.027545957826, 9.05242784274742, 516.8822231260128, 0.0, -0.01600000075995922, 0.9920000471174717, 0.0, 0.0, 0.0, 0.0, 0.0, 1.739881487383648E9, 0.0, 2025-02-18 12:24:47.383
7.0, 2.341177372261882, -2121.0412510200404, 3.5547749078832567, 425.4416692093946, 0.0, -0.01600000075995922, 0.9920000471174717, 0.0, 0.0, 0.0, 0.0, 0.0, 1.739881487383772E9, 0.0, 2025-02-18 12:24:47.383
8.0, 9.705040385015309, -2287.556556647178, 9.688210835214704, 445.3715960732661, 0.0, -0.01600000075995922, 0.9920000471174717, 0.0, 0.0, 0.0, 0.0, 0.0, 1.7398814873838885E9, 0.0, 2025-02-18 12:24:47.383
8.0, 12.805417448282242, -2373.0918085337617, 15.690750264097005, 552.7403839011677, 0.0, -0.01600000075995922, 0.9920000471174717, 0.0, 0.0, 0.0, 0.0, 0.0, 1.739881487383961E9, 0.0, 2025-02-18 12:24:47.383
9.0, 5.961400529369712, -2462.8138784207404, 9.662031535524875, 524.8818691312335, 0.0, -0.01600000075995922, 0.9920000471174717, 0.0, 0.0, 0.0, 0.0, 0.0, 1.739881487384807E9, 0.0, 2025-02-18 12:24:47.384
9.0, -1.2977452846243978, -2621.4436049913056, 5.364886486437172, 423.0817923373543, 0.0, -0.01600000075995922, 0.9920000471174717, 0.0, 0.0, 0.0, 0.0, 0.0, 1.7398814873848672E9, 0.0, 2025-02-18 12:24:47.384
10.0, 7.719153508543968, -2783.893639366608, 17.13061174703762, 462.73969146749005, 0.0, -0.01600000075995922, 0.9920000471174717, 0.0, 0.0, 0.0, 0.0, 0.0, 1.739881487413502E9, 0.0, 2025-02-18 12:24:47.413
10.0, 15.483185816556215, -2880.824366418179, 9.519915337208658, 583.6917959344573, 0.0, -0.01600000075995922, 0.9920000471174717, 0.0, 0.0, 0.0, 0.0, 0.0, 1.7398814874135504E9, 0.0, 2025-02-18 12:24:47.413
11.0, 8.43721430003643, -2974.59674795717, 10.133258929941803, 532.0138583467342, 0.0, -0.01600000075995922, 0.9920000471174717, 0.0, 0.0, 0.0, 0.0, 0.0, 1.739881487413826E9, 0.0, 2025-02-18 12:24:47.413
11.0, 2.2402000734582543, -3111.0563475904055, 12.908264697063714, 431.75462033459917, 0.0, -0.01600000075995922, 0.9920000471174717, 0.0, 0.0, 0.0, 0.0, 0.0, 1.7398814874138794E9, 0.0, 2025-02-18 12:24:47.413
12.0, 7.7453328082337976, -3282.212869062554, 13.259815292898566, 460.750064691063, 0.0, -0.01600000075995922, 0.9920000471174717, 0.0, 0.0, 0.0, 0.0, 0.0, 1.7398814874147959E9, 0.0, 2025-02-18 12:24:47.414
12.0, 15.32611001841724, -3374.947428363841, 12.193943805526942, 558.7130041304044, 0.0, -0.01600000075995922, 0.9920000471174717, 0.0, 0.0, 0.0, 0.0, 0.0, 1.7398814874148607E9, 0.0, 2025-02-18 12:24:47.414
13.0, 4.932928041554987, -3452.3839268963784, 14.965209672693163, 502.38263099780306, 0.0, -0.01600000075995922, 0.9920000471174717, 0.0, 0.0, 0.0, 0.0, 0.0, 1.7398814874437952E9, 0.0, 2025-02-18 12:24:47.443
13.0, 7.962247005663812, -3604.592245243024, 7.208657164592296, 422.337552246172, 0.0, -0.01600000075995922, 0.9920000471174717, 0.0, 0.0, 0.0, 0.0, 0.0, 1.7398814874438384E9, 0.0, 2025-02-18 12:24:47.443
14.0, 8.096883404068649, -3774.746473527048, 16.173197358381003, 470.44388537621126, 0.0, -0.01600000075995922, 0.9920000471174717, 0.0, 0.0, 0.0, 0.0, 0.0, 1.7398814874440088E9, 0.0, 2025-02-18 12:24:47.444
14.0, 13.616975738666952, -3860.304164813366, 11.543201213236898, 578.7102491934784, 0.0, -0.01600000075995922, 0.9920000471174717, 0.0, 0.0, 0.0, 0.0, 0.0, 1.7398814874440413E9, 0.0, 2025-02-18 12:24:47.444
15.0, 9.895775282755494, -3944.0199553715065, 9.736829534638673, 526.3815690134652, 0.0, -0.01600000075995922, 0.9920000471174717, 0.0, 0.0, 0.0, 0.0, 0.0, 1.7398814874451492E9, 0.0, 2025-02-18 12:24:47.445
15.0, 5.075044239871204, -4084.7056419546716, 7.552727960515767, 438.1797684584744, 0.0, -0.01600000075995922, 0.9920000471174717, 0.0, 0.0, 0.0, 0.0, 0.0, 1.7398814874452624E9, 0.0, 2025-02-18 12:24:47.445
16.0, 8.07070410437882, -4228.272921453696, 13.11021929467097, 478.8324809768237, 0.0, -0.01600000075995922, 0.9920000471174717, 0.0, 0.0, 0.0, 0.0, 0.0, 1.7398814874732769E9, 0.0, 2025-02-18 12:24:47.473
16.0, 14.035844533704221, -4316.512121008243, 15.339199668262154, 596.4448547833599, 0.0, -0.01600000075995922, 0.9920000471174717, 0.0, 0.0, 0.0, 0.0, 0.0, 1.7398814874733293E9, 0.0, 2025-02-18 12:24:47.473
17.0, 6.915075018070638, -4412.707957718521, 10.2454559286125, 550.6684793257155, 0.0, -0.01600000075995922, 0.9920000471174717, 0.0, 0.0, 0.0, 0.0, 0.0, 1.7398814874737413E9, 0.0, 2025-02-18 12:24:47.473
17.0, 3.904455553740263, -4550.843032531906, 5.45090418541804, 465.88494733022526, 0.0, -0.01600000075995922, 0.9920000471174717, 0.0, 0.0, 0.0, 0.0, 0.0, 1.739881487473781E9, 0.0, 2025-02-18 12:24:47.473
18.0, 11.934020758606493, -4734.004632861819, 12.24256250495091, 520.1396759874187, 0.0, -0.01600000075995922, 0.9920000471174717, 0.0, 0.0, 0.0, 0.0, 0.0, 1.7398814874749012E9, 0.0, 2025-02-18 12:24:47.474
18.0, 15.26253171917051, -4826.713012863416, 17.399884543847293, 614.8302029655315, 0.0, -0.01600000075995922, 0.9920000471174717, 0.0, 0.0, 0.0, 0.0, 0.0, 1.7398814874767537E9, 0.0, 2025-02-18 12:24:47.476
19.0, 9.843416683375835, -4920.821985398419, 14.811873774509877, 556.7233773539774, 0.0, -0.01600000075995922, 0.9920000471174717, 0.0, 0.0, 0.0, 0.0, 0.0, 1.73988148750332E9, 0.0, 2025-02-18 12:24:47.503
19.0, 5.284478637389839, -5055.355536554474, 11.909711408894509, 448.18026093998924, 0.0, -0.01600000075995922, 0.9920000471174717, 0.0, 0.0, 0.0, 0.0, 0.0, 1.7398814875033572E9, 0.0, 2025-02-18 12:24:47.503
20.0, 8.86730279494077, -5246.782315786462, 14.142431682441384, 485.01079570362344, 0.0, -0.01600000075995922, 0.9920000471174717, 0.0, 0.0, 0.0, 0.0, 0.0, 1.7398814875037813E9, 0.0, 2025-02-18 12:24:47.503
20.0, 11.833043459802866, -5348.144824285526, 17.84867253853008, 577.9660091022961, 0.0, -0.01600000075995922, 0.9920000471174717, 0.0, 0.0, 0.0, 0.0, 0.0, 1.7398814875038333E9, 0.0, 2025-02-18 12:24:47.503
21.0, 8.620469397865236, -5420.824170074426, 12.178984205704182, 516.3174982327037, 0.0, -0.01600000075995922, 0.9920000471174717, 0.0, 0.0, 0.0, 0.0, 0.0, 1.7398814875048203E9, 0.0, 2025-02-18 12:24:47.504
21.0, 0.44878799468278885, -5559.505270281341, 8.970150043722242, 431.563885436859, 0.0, -0.01600000075995922, 0.9920000471174717, 0.0, 0.0, 0.0, 0.0, 0.0, 1.739881487504866E9, 0.0, 2025-02-18 12:24:47.504
22.0, 6.896375518292189, -5744.566739788745, 12.313620604109019, 477.8414074885659, 0.0, -0.01600000075995922, 0.9920000471174717, 0.0, 0.0, 0.0, 0.0, 0.0, 1.7398814875333066E9, 0.0, 2025-02-18 12:24:47.533
22.0, 18.55738358013332, -5844.029379110318, 13.974136184435338, 568.5639006136917, 0.0, -0.01600000075995922, 0.9920000471174717, 0.0, 0.0, 0.0, 0.0, 0.0, 1.739881487533362E9, 0.0, 2025-02-18 12:24:47.533
23.0, 6.8552366187796, -5910.960498667322, 10.062200830783695, 488.82175375847146, 0.0, -0.01600000075995922, 0.9920000471174717, 0.0, 0.0, 0.0, 0.0, 0.0, 1.7398814875337477E9, 0.0, 2025-02-18 12:24:47.533
23.0, 0.2505732970312238, -6050.842106760014, 9.654551735613495, 403.26406247215346, 0.0, -0.01600000075995922, 0.9920000471174717, 0.0, 0.0, 0.0, 0.0, 0.0, 1.739881487533775E9, 0.0, 2025-02-18 12:24:47.533
24.0, 7.726633308455348, -6195.351841047872, 11.685317411553115, 446.5608842591755, 0.0, -0.01600000075995922, 0.9920000471174717, 0.0, 0.0, 0.0, 0.0, 0.0, 1.7398814875347257E9, 0.0, 2025-02-18 12:24:47.534
24.0, 10.595136574469507, -6287.663791654166, 9.504955737385899, 531.7894643493928, 0.0, -0.01600000075995922, 0.9920000471174717, 0.0, 0.0, 0.0, 0.0, 0.0, 1.739881487534762E9, 0.0, 2025-02-18 12:24:47.534
25.0, 9.417068088427186, -6359.071571458131, 18.76494802767411, 466.00462412880734, 0.0, -0.01600000075995922, 0.9920000471174717, 0.0, 0.0, 0.0, 0.0, 0.0, 1.7398814875636756E9, 0.0, 2025-02-18 12:24:47.563
25.0, -0.3066717963665724, -6491.144268443342, 8.66721814731136, 388.9402456418611, 0.0, -0.01600000075995922, 0.9920000471174717, 0.0, 0.0, 0.0, 0.0, 0.0, 1.739881487563838E9, 0.0, 2025-02-18 12:24:47.563
26.0, 7.322724113240838, -6678.905945718754, 10.036021531093866, 444.61987618217245, 0.0, -0.01600000075995922, 0.9920000471174717, 0.0, 0.0, 0.0, 0.0, 0.0, 1.7398814875640476E9, 0.0, 2025-02-18 12:24:47.564
26.0, 12.644601750187576, -6776.8688851580955, 14.594959577079862, 557.0076097506098, 0.0, -0.01600000075995922, 0.9920000471174717, 0.0, 0.0, 0.0, 0.0, 0.0, 1.73988148756408E9, 0.0, 2025-02-18 12:24:47.564
27.0, 6.286771825514734, -6868.767576819286, 13.46550979046151, 507.2519807401113, 0.0, -0.01600000075995922, 0.9920000471174717, 0.0, 0.0, 0.0, 0.0, 0.0, 1.739881487564649E9, 0.0, 2025-02-18 12:24:47.564
27.0, 2.1579222744330764, -7021.574279158842, 7.066540966276079, 447.65293504623696, 0.0, -0.01600000075995922, 0.9920000471174717, 0.0, 0.0, 0.0, 0.0, 0.0, 1.7398814875646787E9, 0.0, 2025-02-18 12:24:47.564
28.0, 12.547364351339638, -7198.082597467583, 12.496875701937824, 529.7437390736304, 0.0, -0.01600000075995922, 0.9920000471174717, 0.0, 0.0, 0.0, 0.0, 0.0, 1.7398814875938063E9, 0.0, 2025-02-18 12:24:47.593
28.0, 15.774898013100028, -7301.625467640813, 14.520161577966064, 617.5491102333181, 0.0, -0.01600000075995922, 0.9920000471174717, 0.0, 0.0, 0.0, 0.0, 0.0, 1.7398814875938728E9, 0.0, 2025-02-18 12:24:47.593
29.0, 3.6838014563545585, -7380.120357860811, 9.347879939246923, 549.1201607440598, 0.0, -0.01600000075995922, 0.9920000471174717, 0.0, 0.0, 0.0, 0.0, 0.0, 1.7398814875941296E9, 0.0, 2025-02-18 12:24:47.594
29.0, 3.1527356626465917, -7517.215740486514, 4.736583293881267, 471.6593528618105, 0.0, -0.01600000075995922, 0.9920000471174717, 0.0, 0.0, 0.0, 0.0, 0.0, 1.739881487594177E9, 0.0, 2025-02-18 12:24:47.594
30.0, 13.67681413795799, -7706.260203446727, 16.180677158292383, 521.2653858740814, 0.0, -0.01600000075995922, 1.008000047877431, 0.0, 0.0, 0.0, 0.0, 0.0, 1.7398814875947635E9, 0.0, 2025-02-18 12:24:47.594
30.0, 13.725432837381959, -7781.708945152815, 15.604732565116137, 589.2380675687455, 0.0, -0.01600000075995922, 1.008000047877431, 0.0, 0.0, 0.0, 0.0, 0.0, 1.7398814875948017E9, 0.0, 2025-02-18 12:24:47.594
31.0, 8.740146196447313, -7844.2905610613525, 14.737075775396079, 507.8129657334648, 0.0, -0.01600000075995922, 1.008000047877431, 0.0, 0.0, 0.0, 0.0, 0.0, 1.7398814876234195E9, 0.0, 2025-02-18 12:24:47.623
31.0, 5.871642930433154, -7966.0785331684165, 7.328333963174373, 423.0256938380189, 0.0, -0.01600000075995922, 1.008000047877431, 0.0, 0.0, 0.0, 0.0, 0.0, 1.7398814876234725E9, 0.0, 2025-02-18 12:24:47.623
32.0, 8.665348197333515, -8177.248244266491, 11.644178512040526, 503.5980984834023, 0.0, -0.01600000075995922, 1.008000047877431, 0.0, 0.0, 0.0, 0.0, 0.0, 1.7398814876257403E9, 0.0, 2025-02-18 12:24:47.625
32.0, 11.201000367291272, -8246.14468125021, 14.748295475263149, 572.8573057628237, 0.0, -0.01600000075995922, 1.008000047877431, 0.0, 0.0, 0.0, 0.0, 0.0, 1.7398814876275532E9, 0.0, 2025-02-18 12:24:47.627
33.0, 5.060084640048444, -8346.81717820745, 10.077160430606455, 509.42860251432285, 0.0, -0.01600000075995922, 1.008000047877431, 0.0, 0.0, 0.0, 0.0, 0.0, 1.7398814876276095E9, 0.0, 2025-02-18 12:24:47.627
33.0, 3.6464024567976594, -8488.602395377588, 9.07112734252587, 444.4216614845209, 0.0, -0.01600000075995922, 1.008000047877431, 0.0, 0.0, 0.0, 0.0, 0.0, 1.7398814876276383E9, 0.0, 2025-02-18 12:24:47.627
34.0, 12.281831454485655, -8675.758208860178, 14.516421678010374, 521.8749895668589, 0.0, -0.01600000075995922, 1.008000047877431, 0.0, 0.0, 0.0, 0.0, 0.0, 1.739881487653574E9, 0.0, 2025-02-18 12:24:47.653
34.0, 12.610942650586367, -8760.448243356775, 15.750588663388044, 576.2157359230332, 0.0, -0.01600000075995922, 1.008000047877431, 0.0, 0.0, 0.0, 0.0, 0.0, 1.7398814876536348E9, 0.0, 2025-02-18 12:24:47.653
35.0, 8.687787597067654, -8839.103949274868, 14.198530181776732, 486.0205686916597, 0.0, -0.01600000075995922, 1.008000047877431, 0.0, 0.0, 0.0, 0.0, 0.0, 1.7398814876538556E9, 0.0, 2025-02-18 12:24:47.653
35.0, -0.4226086949929595, -8986.68227147637, 8.065094254445285, 409.2479024012573, 0.0, -0.01600000075995922, 1.008000047877431, 0.0, 0.0, 0.0, 0.0, 0.0, 1.7398814876539009E9, 0.0, 2025-02-18 12:24:47.653
36.0, 5.520092334598303, -9183.300031846855, 9.299261239822954, 484.19549751328304, 0.0, -0.01600000075995922, 1.008000047877431, 0.0, 0.0, 0.0, 0.0, 0.0, 1.7398814876547017E9, 0.0, 2025-02-18 12:24:47.654
36.0, 15.636521714739501, -9238.680470390711, 16.27417465718463, 555.582707867492, 0.0, -0.01600000075995922, 1.008000047877431, 0.0, 0.0, 0.0, 0.0, 0.0, 1.7398814876547513E9, 0.0, 2025-02-18 12:24:47.654
37.0, 7.22922661434859, -9346.028688768856, 12.758668698836118, 480.0217691627331, 0.0, -0.01600000075995922, 1.008000047877431, 0.0, 0.0, 0.0, 0.0, 0.0, 1.7398814876833656E9, 0.0, 2025-02-18 12:24:47.683
37.0, 2.3897960716858506, -9460.411658963654, 7.803301257546991, 418.42561689252034, 0.0, -0.01600000075995922, 1.008000047877431, 0.0, 0.0, 0.0, 0.0, 0.0, 1.739881487683416E9, 0.0, 2025-02-18 12:24:47.683
38.0, 1.9148287773132324, -9660.189634796698, 12.220123105216771, 492.2101031183265, 0.0, -0.01600000075995922, 1.008000047877431, 0.0, 0.0, 0.0, 0.0, 0.0, 1.7398814876837676E9, 0.0, 2025-02-18 12:24:47.683
38.0, 10.83075027167797, -9740.399269146379, 16.416290855500847, 552.4898106041364, 0.0, -0.01600000075995922, 1.008000047877431, 0.0, 0.0, 0.0, 0.0, 0.0, 1.7398814876838677E9, 0.0, 2025-02-18 12:24:47.683
39.0, 8.545671398751438, -9794.689526853152, 8.536321648862213, 474.8831466236152, 0.0, -0.01600000075995922, 1.008000047877431, 0.0, 0.0, 0.0, 0.0, 0.0, 1.739881487685189E9, 0.0, 2025-02-18 12:24:47.685
39.0, 1.60815698094666, -9949.485855969135, 5.155452088918537, 410.64662498468533, 0.0, -0.01600000075995922, 1.008000047877431, 0.0, 0.0, 0.0, 0.0, 0.0, 1.7398814876852334E9, 0.0, 2025-02-18 12:24:47.685
40.0, 10.613836074247956, -10128.746740645263, 8.23338975245133, 486.52919508563355, 0.0, -0.01600000075995922, 1.008000047877431, 0.0, 0.0, 0.0, 0.0, 0.0, 1.7398814877132847E9, 0.0, 2025-02-18 12:24:47.713
40.0, 13.923647535033524, -10208.60482439911, 13.686163887847215, 570.0897797956131, 0.0, -0.01600000075995922, 1.008000047877431, 0.0, 0.0, 0.0, 0.0, 0.0, 1.7398814877133427E9, 0.0, 2025-02-18 12:24:47.713
41.0, 8.194120802916586, -10292.436551855877, 11.573120412882417, 508.5272866250016, 0.0, -0.01600000075995922, 1.008000047877431, 0.0, 0.0, 0.0, 0.0, 0.0, 1.739881487713738E9, 0.0, 2025-02-18 12:24:47.713
41.0, 3.500546358525753, -10447.509633568581, 9.250642540398985, 458.88385461317375, 0.0, -0.01600000075995922, 1.008000047877431, 0.0, 0.0, 0.0, 0.0, 0.0, 1.739881487713776E9, 0.0, 2025-02-18 12:24:47.713
42.0, 6.069857628084719, -10649.13138007978, 12.848426297772676, 537.1637005857192, 0.0, -0.01600000075995922, 1.008000047877431, 0.0, 0.0, 0.0, 0.0, 0.0, 1.7398814877146568E9, 0.0, 2025-02-18 12:24:47.714
42.0, 11.616129262372851, -10719.497597746085, 14.486502478364855, 599.9080021423288, 0.0, -0.01600000075995922, 1.008000047877431, 0.0, 0.0, 0.0, 0.0, 0.0, 1.73988148771471E9, 0.0, 2025-02-18 12:24:47.714
43.0, 7.188087714836001, -10801.126524128951, 11.565640612971038, 521.6655551693402, 0.0, -0.01600000075995922, 1.008000047877431, 0.0, 0.0, 0.0, 0.0, 0.0, 1.739881487743919E9, 0.0, 2025-02-18 12:24:47.743
43.0, 2.2327202735468745, -10935.697474284563, 4.9684570911340415, 462.1001685750671, 0.0, -0.01600000075995922, 1.008000047877431, 0.0, 0.0, 0.0, 0.0, 0.0, 1.7398814877439995E9, 0.0, 2025-02-18 12:24:47.743
44.0, 5.972620229236782, -11157.727854853962, 15.268141569104046, 542.1340276268311, 0.0, -0.01600000075995922, 1.008000047877431, 0.0, 0.0, 0.0, 0.0, 0.0, 1.739881487744228E9, 0.0, 2025-02-18 12:24:47.744
44.0, 13.542177739553154, -11215.599066768307, 15.571073465514928, 605.9292410709895, 0.0, -0.01600000075995922, 1.008000047877431, 0.0, 0.0, 0.0, 0.0, 0.0, 1.7398814877442608E9, 0.0, 2025-02-18 12:24:47.744
45.0, 8.504532499238849, -11304.382421766408, 11.43474411452189, 516.9009226257913, 0.0, -0.01600000075995922, 1.008000047877431, 0.0, 0.0, 0.0, 0.0, 0.0, 1.739881487746032E9, 0.0, 2025-02-18 12:24:47.746
45.0, 6.930034617893398, -11442.18090558378, 6.23254327615723, 442.7013075049035, 0.0, -0.01600000075995922, 1.008000047877431, 0.0, 0.0, 0.0, 0.0, 0.0, 1.7398814877460933E9, 0.0, 2025-02-18 12:24:47.746
46.0, 6.911335118114948, -11641.098704427015, 13.185017293784767, 517.5105263185687, 0.0, -0.01600000075995922, 1.008000047877431, 0.0, 0.0, 0.0, 0.0, 0.0, 1.739881487773285E9, 0.0, 2025-02-18 12:24:47.773
46.0, 11.343116565607488, -11681.239050651435, 13.151358194183558, 545.6719729849137, 0.0, -0.01600000075995922, 1.008000047877431, 0.0, 0.0, 0.0, 0.0, 0.0, 1.7398814877733457E9, 0.0, 2025-02-18 12:24:47.773
47.0, 2.932081565260887, -11757.463821598329, 9.015028843190521, 451.17218090454116, 0.0, -0.01600000075995922, 1.008000047877431, 0.0, 0.0, 0.0, 0.0, 0.0, 1.739881487773703E9, 0.0, 2025-02-18 12:24:47.773
47.0, 2.9283416653051972, -11890.277018774766, 6.703770670574158, 381.8007766264491, 0.0, -0.01600000075995922, 1.008000047877431, 0.0, 0.0, 0.0, 0.0, 0.0, 1.7398814877737436E9, 0.0, 2025-02-18 12:24:47.773
48.0, 13.130788744427264, -12087.874632933643, 11.539461313281208, 461.4868249823339, 0.0, -0.01600000075995922, 1.008000047877431, 0.0, 0.0, 0.0, 0.0, 0.0, 1.7398814877745757E9, 0.0, 2025-02-18 12:24:47.774
48.0, 16.788410901091993, -12156.647653218824, 18.211442834232002, 517.4656475191005, 0.0, -0.01600000075995922, 1.008000047877431, 0.0, 0.0, 0.0, 0.0, 0.0, 1.7398814877746036E9, 0.0, 2025-02-18 12:24:47.774
49.0, 8.814944195561111, -12239.174155591056, 7.653705259319395, 441.9271482140757, 0.0, -0.01600000075995922, 1.008000047877431, 0.0, 0.0, 0.0, 0.0, 0.0, 1.7398814878039577E9, 0.0, 2025-02-18 12:24:47.803
49.0, 7.1432089153677225, -12383.117295035627, 10.099599830340594, 395.81792166037485, 0.0, -0.01600000075995922, 1.008000047877431, 0.0, 0.0, 0.0, 0.0, 0.0, 1.7398814878040075E9, 0.0, 2025-02-18 12:24:47.804
50.0, 9.334790289402008, -12594.186028834898, 9.935044232290238, 494.7756744879298, 0.0, -0.01600000075995922, 1.008000047877431, 0.0, 0.0, 0.0, 0.0, 0.0, 1.739881487804668E9, 0.0, 2025-02-18 12:24:47.804
50.0, 15.419607517309487, -12668.778333451133, 16.199376658070832, 558.2193373362534, 0.0, -0.01600000075995922, 1.008000047877431, 0.0, 0.0, 0.0, 0.0, 0.0, 1.7398814878047476E9, 0.0, 2025-02-18 12:24:47.804
51.0, 6.7392997201532125, -12742.650707325898, 11.715236611198634, 486.12154599046335, 0.0, -0.01600000075995922, 1.008000047877431, 0.0, 0.0, 0.0, 0.0, 0.0, 1.7398814878050783E9, 0.0, 2025-02-18 12:24:47.805
51.0, 1.813851478509605, -12900.880264601205, 9.325440539512783, 447.18170765182003, 0.0, -0.01600000075995922, 1.008000047877431, 0.0, 0.0, 0.0, 0.0, 0.0, 1.739881487805115E9, 0.0, 2025-02-18 12:24:47.805
52.0, 9.091696792282164, -13111.776963002514, 11.554420913103968, 552.8675404996611, 0.0, -0.01600000075995922, 1.008000047877431, 0.0, 0.0, 0.0, 0.0, 0.0, 1.73988148783332E9, 0.0, 2025-02-18 12:24:47.833
52.0, 13.886248535476625, -13167.950260336976, 18.37973833223805, 590.0683253589086, 0.0, -0.01600000075995922, 1.008000047877431, 0.0, 0.0, 0.0, 0.0, 0.0, 1.7398814878333669E9, 0.0, 2025-02-18 12:24:47.833
53.0, 3.7137206560000777, -13238.991529945284, 12.343539803754538, 495.71812927676365, 0.0, -0.01600000075995922, 1.008000047877431, 0.0, 0.0, 0.0, 0.0, 0.0, 1.739881487833814E9, 0.0, 2025-02-18 12:24:47.833
53.0, 0.2692727968096733, -13369.3251734511, 11.681577511597425, 441.3025849214755, 0.0, -0.01600000075995922, 1.008000047877431, 0.0, 0.0, 0.0, 0.0, 0.0, 1.739881487833846E9, 0.0, 2025-02-18 12:24:47.833
54.0, 5.953920729458332, -13603.383072277997, 12.358499403577298, 535.8584755011834, 0.0, -0.01600000075995922, 1.008000047877431, 0.0, 0.0, 0.0, 0.0, 0.0, 1.739881487834623E9, 0.0, 2025-02-18 12:24:47.834
54.0, 12.667041149921715, -13638.283818664495, 13.603886088822037, 571.6156589775346, 0.0, -0.01600000075995922, 1.008000047877431, 0.0, 0.0, 0.0, 0.0, 0.0, 1.7398814878346734E9, 0.0, 2025-02-18 12:24:47.834
55.0, 9.25251249037683, -13729.793560730293, 11.150511717889458, 486.34967988776043, 0.0, -0.01600000075995922, 1.008000047877431, 0.0, 0.0, 0.0, 0.0, 0.0, 1.7398814878637035E9, 0.0, 2025-02-18 12:24:47.863
55.0, 5.594890333712101, -13865.239647475537, 6.471896873321384, 437.3008919688873, 0.0, -0.01600000075995922, 1.008000047877431, 0.0, 0.0, 0.0, 0.0, 0.0, 1.7398814878638184E9, 0.0, 2025-02-18 12:24:47.863
56.0, 6.324170825071633, -14078.750535945874, 12.2463024049066, 526.3404301139526, 0.0, -0.01600000075995922, 1.008000047877431, 0.0, 0.0, 0.0, 0.0, 0.0, 1.73988148786418E9, 0.0, 2025-02-18 12:24:47.864
56.0, 11.578730262815952, -14126.389381581452, 14.131211982574314, 560.624093007762, 0.0, -0.01600000075995922, 1.008000047877431, 0.0, 0.0, 0.0, 0.0, 0.0, 1.739881487864234E9, 0.0, 2025-02-18 12:24:47.864
57.0, 6.05115812830627, -14195.863633108325, 10.832620221655816, 463.7494644555263, 0.0, -0.01600000075995922, 1.008000047877431, 0.0, 0.0, 0.0, 0.0, 0.0, 1.7398814878647437E9, 0.0, 2025-02-18 12:24:47.864
57.0, -0.018699499778449535, -14337.734867977444, 8.016475555021316, 420.71443566540256, 0.0, -0.01600000075995922, 1.008000047877431, 0.0, 0.0, 0.0, 0.0, 0.0, 1.7398814878647687E9, 0.0, 2025-02-18 12:24:47.864
58.0, 12.925094246864319, -14555.378345898818, 9.04120814288035, 524.0067325416021, 0.0, -0.01600000075995922, 1.008000047877431, 0.0, 0.0, 0.0, 0.0, 0.0, 1.739881487893428E9, 0.0, 2025-02-18 12:24:47.893
58.0, 16.975405898876488, -14597.75515229674, 11.733936110977083, 561.3683330989443, 0.0, -0.01600000075995922, 1.008000047877431, 0.0, 0.0, 0.0, 0.0, 0.0, 1.7398814878952649E9, 0.0, 2025-02-18 12:24:47.895
59.0, 7.539638310670853, -14685.921423802152, 9.43389763822779, 465.77649023151025, 0.0, -0.01600000075995922, 1.008000047877431, 0.0, 0.0, 0.0, 0.0, 0.0, 1.739881487897182E9, 0.0, 2025-02-18 12:24:47.897
59.0, 4.611296645365655, -14824.624963408802, 4.901138891931623, 423.60163843119517, 0.0, -0.01600000075995922, 1.008000047877431, 0.0, 0.0, 0.0, 0.0, 0.0, 1.7398814878972187E9, 0.0, 2025-02-18 12:24:47.897
60.0, 6.369049624539912, -15048.854405152146, 10.985956119839102, 520.6857013809495, 0.0, -0.01600000075995922, 0.9920000471174717, 0.0, 0.0, 0.0, 0.0, 0.0, 1.7398814878972483E9, 0.0, 2025-02-18 12:24:47.897
60.0, 16.231165807694197, -15097.604001074564, 19.441869919653982, 557.4676174451597, 0.0, -0.01600000075995922, 0.9920000471174717, 0.0, 0.0, 0.0, 0.0, 0.0, 1.73988148789727E9, 0.0, 2025-02-18 12:24:47.897
61.0, 9.839676783420146, -15168.271280687302, 11.273928416427225, 449.76223862124607, 0.0, -0.01600000075995922, 0.9920000471174717, 0.0, 0.0, 0.0, 0.0, 0.0, 1.7398814879238236E9, 0.0, 2025-02-18 12:24:47.923
61.0, 4.704794144257903, -15278.719876128715, 8.962670243810862, 417.75991470040753, 0.0, -0.01600000075995922, 0.9920000471174717, 0.0, 0.0, 0.0, 0.0, 0.0, 1.7398814879238827E9, 0.0, 2025-02-18 12:24:47.923
62.0, 5.306918037123978, -15050.37841438409, 17.751435139682144, 528.5768902874552, 0.0, -0.01600000075995922, 0.9920000471174717, 0.0, 0.0, 0.0, 0.0, 0.0, 1.7398814879241495E9, 0.0, 2025-02-18 12:24:47.924
62.0, 11.948980358429253, -15063.976690622978, 18.3236398329027, 538.0089179757051, 0.0, -0.01600000075995922, 0.9920000471174717, 0.0, 0.0, 0.0, 0.0, 0.0, 1.7398814879241936E9, 0.0, 2025-02-18 12:24:47.924
63.0, 8.411035000346601, -15166.627594656777, 20.081392812076956, 441.92340831412, 0.0, -0.01600000075995922, 0.9920000471174717, 0.0, 0.0, 0.0, 0.0, 0.0, 1.73988148792475E9, 0.0, 2025-02-18 12:24:47.924
63.0, 1.4996998822316527, -15298.618013842963, 11.244009216781706, 403.2117038727738, 0.0, -0.01600000075995922, 0.9920000471174717, 0.0, 0.0, 0.0, 0.0, 0.0, 1.739881487924869E9, 0.0, 2025-02-18 12:24:47.924
64.0, 7.180607914924622, -15528.191772622988, 10.529688325244933, 508.2879330278374, 0.0, -0.01600000075995922, 0.9920000471174717, 0.0, 0.0, 0.0, 0.0, 0.0, 1.7398814879537497E9, 0.0, 2025-02-18 12:24:47.953
64.0, 13.224286243319511, -15581.593804090284, 13.49542899010703, 543.9777983049862, 0.0, -0.01600000075995922, 0.9920000471174717, 0.0, 0.0, 0.0, 0.0, 0.0, 1.7398814879538171E9, 0.0, 2025-02-18 12:24:47.953
65.0, 7.64809540938586, -15669.472103299107, 11.603039612527937, 452.28293119138107, 0.0, -0.01600000075995922, 0.9920000471174717, 0.0, 0.0, 0.0, 0.0, 0.0, 1.7398814879541383E9, 0.0, 2025-02-18 12:24:47.954
65.0, 2.8161446666345, -15801.054873390123, 6.1764447768218815, 429.3012459636666, 0.0, -0.01600000075995922, 0.9920000471174717, 0.0, 0.0, 0.0, 0.0, 0.0, 1.7398814879541821E9, 0.0, 2025-02-18 12:24:47.954
66.0, 11.006525569595397, -16038.673156974837, 17.601839141454548, 547.9907109574415, 0.0, -0.01600000075995922, 0.9920000471174717, 0.0, 0.0, 0.0, 0.0, 0.0, 1.7398814879546745E9, 0.0, 2025-02-18 12:24:47.954
66.0, 13.381362041458488, -16061.748339701444, 14.396744879428297, 575.2358821346425, 0.0, -0.01600000075995922, 0.9920000471174717, 0.0, 0.0, 0.0, 0.0, 0.0, 1.7398814879547167E9, 0.0, 2025-02-18 12:24:47.954
67.0, 8.336237001232803, -16144.86948616663, 8.106233153957874, 474.2361439312808, 0.0, -0.01600000075995922, 0.9920000471174717, 0.0, 0.0, 0.0, 0.0, 0.0, 1.7398814879837718E9, 0.0, 2025-02-18 12:24:47.983
67.0, 2.569311269558966, -16293.760513252579, 5.952050779480487, 445.8951820670627, 0.0, -0.01600000075995922, 0.9920000471174717, 0.0, 0.0, 0.0, 0.0, 0.0, 1.7398814879838223E9, 0.0, 2025-02-18 12:24:47.983
68.0, 2.864763366058469, -16501.190324394964, 12.552974201273173, 551.9699645102955, 0.0, -0.01600000075995922, 0.9920000471174717, 0.0, 0.0, 0.0, 0.0, 0.0, 1.7398814879842002E9, 0.0, 2025-02-18 12:24:47.984
68.0, 12.05369755718857, -16523.315572532825, 15.48505576653406, 567.2624154291116, 0.0, -0.01600000075995922, 0.9920000471174717, 0.0, 0.0, 0.0, 0.0, 0.0, 1.7398814879842477E9, 0.0, 2025-02-18 12:24:47.984
69.0, 5.430334735661745, -16616.975757073145, 15.451396666932851, 452.4848857889883, 0.0, -0.01600000075995922, 0.9920000471174717, 0.0, 0.0, 0.0, 0.0, 0.0, 1.7398814879849305E9, 0.0, 2025-02-18 12:24:47.984
69.0, 6.182054626755416, -16789.390754880384, 7.522808760870248, 437.3756899680011, 0.0, -0.01600000075995922, 0.9920000471174717, 0.0, 0.0, 0.0, 0.0, 0.0, 1.7398814879850209E9, 0.0, 2025-02-18 12:24:47.985
70.0, 11.530111563391984, -17018.298811468296, 14.026494783814996, 562.7034773831256, 0.0, -0.01600000075995922, 1.008000047877431, 0.0, 0.0, 0.0, 0.0, 0.0, 1.7398814880138447E9, 0.0, 2025-02-18 12:24:48.013
70.0, 16.388241605833173, -17035.44251286518, 19.56902651814744, 572.1317651714198, 0.0, -0.01600000075995922, 1.008000047877431, 0.0, 0.0, 0.0, 0.0, 0.0, 1.739881488013882E9, 0.0, 2025-02-18 12:24:48.013
71.0, 2.7899653669446707, -17122.32599868579, 9.759268934372813, 466.0457630283199, 0.0, -0.01600000075995922, 1.008000047877431, 0.0, 0.0, 0.0, 0.0, 0.0, 1.739881488014214E9, 0.0, 2025-02-18 12:24:48.014
71.0, 3.814697954803705, -17267.435986916535, 10.357652927283198, 437.32333136862144, 0.0, -0.01600000075995922, 1.008000047877431, 0.0, 0.0, 0.0, 0.0, 0.0, 1.739881488014259E9, 0.0, 2025-02-18 12:24:48.014
72.0, 7.057191216386855, -17503.805143916048, 9.594713336322457, 537.1487409858964, 0.0, -0.01600000075995922, 1.008000047877431, 0.0, 0.0, 0.0, 0.0, 0.0, 1.7398814880161388E9, 0.0, 2025-02-18 12:24:48.016
72.0, 16.50791840441525, -17532.938964570872, 17.583139641676098, 531.5744201019406, 0.0, -0.01600000075995922, 1.008000047877431, 0.0, 0.0, 0.0, 0.0, 0.0, 1.7398814880177732E9, 0.0, 2025-02-18 12:24:48.017
73.0, 6.103516727685928, -17599.327798634302, 12.231342805083841, 431.59193468652666, 0.0, -0.01600000075995922, 1.008000047877431, 0.0, 0.0, 0.0, 0.0, 0.0, 1.7398814880438013E9, 0.0, 2025-02-18 12:24:48.043
73.0, 1.0509118875488639, -17765.904812610708, 10.27911502821371, 410.33060343842953, 0.0, -0.01600000075995922, 1.008000047877431, 0.0, 0.0, 0.0, 0.0, 0.0, 1.739881488043861E9, 0.0, 2025-02-18 12:24:48.043
74.0, 8.695267396979034, -18008.81879453268, 7.623786059673876, 533.7398221762851, 0.0, -0.01600000075995922, 1.008000047877431, 0.0, 0.0, 0.0, 0.0, 0.0, 1.7398814880440528E9, 0.0, 2025-02-18 12:24:48.044
74.0, 13.474859540350735, -18046.576824485324, 13.364532491657883, 548.0636390065774, 0.0, -0.01600000075995922, 1.008000047877431, 0.0, 0.0, 0.0, 0.0, 0.0, 1.7398814880440807E9, 0.0, 2025-02-18 12:24:48.044
75.0, 10.83449017163366, -18126.597593887243, 8.66721814731136, 450.75518205948174, 0.0, -0.01600000075995922, 1.008000047877431, 0.0, 0.0, 0.0, 0.0, 0.0, 1.73988148804458E9, 0.0, 2025-02-18 12:24:48.044
75.0, -0.2580530969426036, -18285.844403950498, 11.109372818376869, 441.4278715699911, 0.0, -0.01600000075995922, 1.008000047877431, 0.0, 0.0, 0.0, 0.0, 0.0, 1.7398814880446134E9, 0.0, 2025-02-18 12:24:48.044
76.0, 9.65268178563565, -18515.276046532206, 12.796067698393017, 572.2271326202899, 0.0, -0.01600000075995922, 1.008000047877431, 0.0, 0.0, 0.0, 0.0, 0.0, 1.7398814880734365E9, 0.0, 2025-02-18 12:24:48.073
76.0, 16.43312040530145, -18538.13805496134, 16.25547515740618, 572.3131503192708, 0.0, -0.01600000075995922, 1.008000047877431, 0.0, 0.0, 0.0, 0.0, 0.0, 1.7398814880734935E9, 0.0, 2025-02-18 12:24:48.073
77.0, 5.991319729015231, -18615.252922097687, 12.627772200386971, 462.37879112176597, 0.0, -0.01600000075995922, 1.008000047877431, 0.0, 0.0, 0.0, 0.0, 0.0, 1.7398814880737653E9, 0.0, 2025-02-18 12:24:48.073
77.0, 1.7839322788640857, -18765.76332586445, 10.585786824580282, 439.5803609918803, 0.0, -0.01600000075995922, 1.008000047877431, 0.0, 0.0, 0.0, 0.0, 0.0, 1.7398814880737965E9, 0.0, 2025-02-18 12:24:48.073
78.0, 9.24503269046545, -18522.148112700786, 13.031681395601481, 544.6154512474313, 0.0, -0.01600000075995922, 1.008000047877431, 0.0, 0.0, 0.0, 0.0, 0.0, 1.7398814880749323E9, 0.0, 2025-02-18 12:24:48.074
78.0, 12.603462850674987, -18521.360863760114, 15.47757596662268, 529.4969056765549, 0.0, -0.01600000075995922, 1.008000047877431, 0.0, 0.0, 0.0, 0.0, 0.0, 1.7398814880749729E9, 0.0, 2025-02-18 12:24:48.074
79.0, 6.896375518292189, -18599.38826648565, 10.365132727194577, 426.84039179282263, 0.0, -0.01600000075995922, 1.008000047877431, 0.0, 0.0, 0.0, 0.0, 0.0, 1.7398814881036918E9, 0.0, 2025-02-18 12:24:48.103
79.0, 5.845463630743325, -18763.508166191168, 11.000915719661862, 429.127340615727, 0.0, -0.01600000075995922, 1.008000047877431, 0.0, 0.0, 0.0, 0.0, 0.0, 1.7398814881037624E9, 0.0, 2025-02-18 12:24:48.103
80.0, 9.417068088427186, -18539.205796398688, 15.268141569104046, 573.6295951036736, 0.0, -0.01600000075995922, 1.008000047877431, 0.0, 0.0, 0.0, 0.0, 0.0, 1.7398814881039228E9, 0.0, 2025-02-18 12:24:48.103
80.0, 14.51829162798822, -18547.433576301206, 12.25004230486229, 570.8788986862637, 0.0, -0.01600000075995922, 1.008000047877431, 0.0, 0.0, 0.0, 0.0, 0.0, 1.7398814881039634E9, 0.0, 2025-02-18 12:24:48.103
81.0, 3.9717737529426813, -18620.202679689042, 12.605332800652832, 452.6120423874818, 0.0, -0.01600000075995922, 1.008000047877431, 0.0, 0.0, 0.0, 0.0, 0.0, 1.739881488104697E9, 0.0, 2025-02-18 12:24:48.104
81.0, 3.8483570544049144, -18769.202163873706, 7.010442466940731, 425.50150760868564, 0.0, -0.01600000075995922, 1.008000047877431, 0.0, 0.0, 0.0, 0.0, 0.0, 1.7398814881047297E9, 0.0, 2025-02-18 12:24:48.104
82.0, 10.942947270348668, -19003.091767202597, 12.68013079976663, 545.0137505927123, 0.0, -0.01600000075995922, 1.008000047877431, 0.0, 0.0, 0.0, 0.0, 0.0, 1.7398814881337008E9, 0.0, 2025-02-18 12:24:48.133
82.0, 13.927387434989214, -19025.134737541433, 15.52245476609096, 548.1029079561122, 0.0, -0.01600000075995922, 1.008000047877431, 0.0, 0.0, 0.0, 0.0, 0.0, 1.7398814881337745E9, 0.0, 2025-02-18 12:24:48.133
83.0, 6.784178519621491, -19116.588381107897, 12.564193901140243, 456.1986064449884, 0.0, -0.01600000075995922, 1.008000047877431, 0.0, 0.0, 0.0, 0.0, 0.0, 1.7398814881339755E9, 0.0, 2025-02-18 12:24:48.133
83.0, 3.706240856088698, -19280.07997762086, 10.148218529764563, 461.4475560327992, 0.0, -0.01600000075995922, 1.008000047877431, 0.0, 0.0, 0.0, 0.0, 0.0, 1.7398814881340208E9, 0.0, 2025-02-18 12:24:48.134
84.0, 8.758845696225762, -19047.512428926304, 11.662878011818975, 599.7827154938132, 0.0, -0.01600000075995922, 1.008000047877431, 0.0, 0.0, 0.0, 0.0, 0.0, 1.7398814881348586E9, 0.0, 2025-02-18 12:24:48.134
84.0, 14.024624833837152, -19053.006341961212, 14.157391282264143, 577.8612919035368, 0.0, -0.01600000075995922, 1.008000047877431, 0.0, 0.0, 0.0, 0.0, 0.0, 1.739881488134907E9, 0.0, 2025-02-18 12:24:48.134
85.0, 7.270365513861179, -19124.451520764735, 13.577706789132208, 448.44205393688753, 0.0, -0.01600000075995922, 1.008000047877431, 0.0, 0.0, 0.0, 0.0, 0.0, 1.7398814881638727E9, 0.0, 2025-02-18 12:24:48.163
85.0, 4.162508650682867, -19278.91499878466, 8.23712965240702, 426.8815306923352, 0.0, -0.01600000075995922, 1.008000047877431, 0.0, 0.0, 0.0, 0.0, 0.0, 1.7398814881639936E9, 0.0, 2025-02-18 12:24:48.163
86.0, 8.515752199105918, -19517.37101995945, 8.181031153071672, 564.1134196664207, 0.0, -0.01600000075995922, 1.008000047877431, 0.0, 0.0, 0.0, 0.0, 0.0, 1.7398814881660078E9, 0.0, 2025-02-18 12:24:48.166
86.0, 12.177114255726337, -19524.360892976634, 15.578553265426308, 565.3737659514882, 0.0, -0.01600000075995922, 1.008000047877431, 0.0, 0.0, 0.0, 0.0, 0.0, 1.739881488166038E9, 0.0, 2025-02-18 12:24:48.166
87.0, 10.02667178120464, -19608.63766852813, 7.283455163706094, 468.48417779942974, 0.0, -0.01600000075995922, 1.008000047877431, 0.0, 0.0, 0.0, 0.0, 0.0, 1.739881488166064E9, 0.0, 2025-02-18 12:24:48.166
87.0, -2.745086567476392, -19763.70327044092, 6.666371671017259, 457.2682178323157, 0.0, -0.01600000075995922, 1.008000047877431, 0.0, 0.0, 0.0, 0.0, 0.0, 1.739881488166086E9, 0.0, 2025-02-18 12:24:48.166
88.0, 7.917368206195533, -19518.805271592457, 14.127472082618624, 582.719421945978, 0.0, -0.01600000075995922, 1.008000047877431, 0.0, 0.0, 0.0, 0.0, 0.0, 1.739881488193457E9, 0.0, 2025-02-18 12:24:48.193
88.0, 13.441200440749526, -19515.30659518391, 15.05870717158541, 548.8116189977154, 0.0, -0.01600000075995922, 1.008000047877431, 0.0, 0.0, 0.0, 0.0, 0.0, 1.73988148819352E9, 0.0, 2025-02-18 12:24:48.193
89.0, 7.831350507214665, -19581.265340752434, 11.49832241376862, 426.52437024656683, 0.0, -0.01600000075995922, 1.008000047877431, 0.0, 0.0, 0.0, 0.0, 0.0, 1.7398814881937375E9, 0.0, 2025-02-18 12:24:48.193
89.0, 2.864763366058469, -19740.47475181613, 9.680731035303324, 427.1096645896323, 0.0, -0.01600000075995922, 1.008000047877431, 0.0, 0.0, 0.0, 0.0, 0.0, 1.7398814881937814E9, 0.0, 2025-02-18 12:24:48.193
90.0, 7.390042312443256, -19500.894890704658, 15.017568272072822, 571.9298105738126, 0.0, -0.01600000075995922, 1.008000047877431, 0.0, 0.0, 0.0, 0.0, 0.0, 1.739881488194702E9, 0.0, 2025-02-18 12:24:48.194
90.0, 12.554844151251018, -19507.933382421266, 13.970396284479648, 557.2862322973087, 0.0, -0.01600000075995922, 1.008000047877431, 0.0, 0.0, 0.0, 0.0, 0.0, 1.73988148819474E9, 0.0, 2025-02-18 12:24:48.194
91.0, 5.909041929990053, -19589.947518499568, 13.90681798523292, 443.5446549449116, 0.0, -0.01600000075995922, 1.008000047877431, 0.0, 0.0, 0.0, 0.0, 0.0, 1.7398814882236617E9, 0.0, 2025-02-18 12:24:48.223
91.0, 0.9798537883907557, -19755.623216586653, 10.208056929055601, 451.2282794038765, 0.0, -0.01600000075995922, 1.008000047877431, 0.0, 0.0, 0.0, 0.0, 0.0, 1.7398814882238283E9, 0.0, 2025-02-18 12:24:48.223
92.0, 12.147195056080818, -19517.576714457013, 13.259815292898566, 581.6423307587393, 0.0, -0.01600000075995922, 1.008000047877431, 0.0, 0.0, 0.0, 0.0, 0.0, 1.7398814882240288E9, 0.0, 2025-02-18 12:24:48.224
92.0, 13.796490936540067, -19512.18190877093, 10.092120030429214, 553.2172211455181, 0.0, -0.01600000075995922, 1.008000047877431, 0.0, 0.0, 0.0, 0.0, 0.0, 1.7398814882240703E9, 0.0, 2025-02-18 12:24:48.224
93.0, 8.583070398308337, -19597.655452308245, 12.519315101671964, 429.5050705112517, 0.0, -0.01600000075995922, 1.008000047877431, 0.0, 0.0, 0.0, 0.0, 0.0, 1.7398814882247372E9, 0.0, 2025-02-18 12:24:48.224
93.0, 6.888895718380809, -19748.113497475628, 10.398791826795787, 434.57824480114505, 0.0, -0.01600000075995922, 1.008000047877431, 0.0, 0.0, 0.0, 0.0, 0.0, 1.73988148822478E9, 0.0, 2025-02-18 12:24:48.224
94.0, 15.442046917043626, -19547.780146499164, 13.648764888290316, 574.7534350403585, 0.0, -0.01600000075995922, 1.008000047877431, 0.0, 0.0, 0.0, 0.0, 0.0, 1.7398814882539065E9, 0.0, 2025-02-18 12:24:48.253
94.0, 15.939453611150384, -19526.565564000513, 11.969549808185548, 539.469348908402, 0.0, -0.01600000075995922, 1.008000047877431, 0.0, 0.0, 0.0, 0.0, 0.0, 1.73988148825397E9, 0.0, 2025-02-18 12:24:48.253
95.0, 11.25709886662662, -19618.486695061438, 12.25004230486229, 427.37332753650844, 0.0, -0.01600000075995922, 1.008000047877431, 0.0, 0.0, 0.0, 0.0, 0.0, 1.7398814882542565E9, 0.0, 2025-02-18 12:24:48.254
95.0, 3.0480184638872743, -19766.109896062408, 9.190804141107947, 427.93992237979546, 0.0, -0.01600000075995922, 1.008000047877431, 0.0, 0.0, 0.0, 0.0, 0.0, 1.7398814882543364E9, 0.0, 2025-02-18 12:24:48.254
96.0, 9.420807988382876, -19530.03806110937, 14.67723737610504, 563.7431695708074, 0.0, -0.01600000075995922, 1.008000047877431, 0.0, 0.0, 0.0, 0.0, 0.0, 1.7398814882546976E9, 0.0, 2025-02-18 12:24:48.254
96.0, 15.621562114916742, -19531.814513588324, 17.620538641232997, 539.0093412138522, 0.0, -0.01600000075995922, 1.008000047877431, 0.0, 0.0, 0.0, 0.0, 0.0, 1.7398814882547393E9, 0.0, 2025-02-18 12:24:48.254
97.0, 12.03873795736581, -19600.989573118743, 16.457429755013436, 419.36246183142066, 0.0, -0.01600000075995922, 1.008000047877431, 0.0, 0.0, 0.0, 0.0, 0.0, 1.7398814882840111E9, 0.0, 2025-02-18 12:24:48.284
97.0, 5.9763601291924715, -19745.755490553565, 6.423278173897415, 426.7805533935316, 0.0, -0.01600000075995922, 1.008000047877431, 0.0, 0.0, 0.0, 0.0, 0.0, 1.7398814882840784E9, 0.0, 2025-02-18 12:24:48.284
98.0, 12.08361675683409, -19512.13702997146, 10.323993827681988, 573.0667401603423, 0.0, -0.01600000075995922, 1.008000047877431, 0.0, 0.0, 0.0, 0.0, 0.0, 1.739881488284319E9, 0.0, 2025-02-18 12:24:48.284
98.0, 11.563770662993193, -19496.98108540103, 15.204563269857317, 536.4587294440717, 0.0, -0.01600000075995922, 1.008000047877431, 0.0, 0.0, 0.0, 0.0, 0.0, 1.739881488286172E9, 0.0, 2025-02-18 12:24:48.286
99.0, 3.9156752536073327, -19580.468742061872, 10.941077320370823, 419.0557900350541, 0.0, -0.01600000075995922, 1.008000047877431, 0.0, 0.0, 0.0, 0.0, 0.0, 1.7398814882882328E9, 0.0, 2025-02-18 12:24:48.288
99.0, 5.490173134952784, -19735.395967676304, 5.892212380189449, 434.735320599284, 0.0, -0.01600000075995922, 1.008000047877431, 0.0, 0.0, 0.0, 0.0, 0.0, 1.7398814882883022E9, 0.0, 2025-02-18 12:24:48.288
100.0, 9.024378593079746, -19508.02687992016, 13.170057693962008, 591.680222239811, 0.0, -0.01600000075995922, 1.008000047877431, 0.0, 0.0, 0.0, 0.0, 0.0, 1.7398814883136213E9, 0.0, 2025-02-18 12:24:48.313
100.0, 13.055990745313466, -19514.668942241464, 20.489041907247156, 557.5181060945615, 0.0, -0.01600000075995922, 1.008000047877431, 0.0, 0.0, 0.0, 0.0, 0.0, 1.7398814883136692E9, 0.0, 2025-02-18 12:24:48.313
0.0, 5.2919584373012185, 15.557983815670013, 7.098330115899444, -46.62533274758607, 0.0, -0.01600000075995922, 1.008000047877431, 0.0, 0.0, 0.0, 0.0, 0.0, 1.7398814883139584E9, 0.0, 2025-02-18 12:24:48.313
1.0, 4.8880492420867085, -154.71405131695792, 6.45132742356509, -18.484455530997366, 0.0, -0.01600000075995922, 1.008000047877431, 0.0, 0.0, 0.0, 0.0, 0.0, 1.739881488314462E9, 0.0, 2025-02-18 12:24:48.314
1.0, 11.144901867955923, 72.71487483847886, 14.772604824975133, 131.21625989535823, 0.0, -0.01600000075995922, 1.008000047877431, 0.0, 0.0, 0.0, 0.0, 0.0, 1.739881488314502E9, 0.0, 2025-02-18 12:24:48.314
2.0, 17.26337819546461, 102.93887633038685, 15.808557112701237, 78.97920726425946, 0.0, -0.01600000075995922, 1.008000047877431, 0.0, 0.0, 0.0, 0.0, 0.0, 1.739881488315258E9, 0.0, 2025-02-18 12:24:48.315
2.0, 6.481246623210609, 16.11148900911212, 11.829303559847176, -44.60578677151352, 0.0, -0.01600000075995922, 1.008000047877431, 0.0, 0.0, 0.0, 0.0, 0.0, 1.7398814883152936E9, 0.0, 2025-02-18 12:24:48.315
3.0, 1.7016544798389077, -152.50751034310088, 6.6607618210837245, -39.828064578119665, 0.0, -0.01600000075995922, 1.008000047877431, 0.0, 0.0, 0.0, 0.0, 0.0, 1.7398814883438935E9, 0.0, 2025-02-18 12:24:48.343
3.0, 9.779838384129107, 73.20854163262993, 9.27869179006666, 111.18909563263878, 0.0, -0.01600000075995922, 1.008000047877431, 0.0, 0.0, 0.0, 0.0, 0.0, 1.7398814883439417E9, 0.0, 2025-02-18 12:24:48.343
4.0, 12.992412446066737, 90.93379747262225, 13.175667543895543, 46.086787153966725, 0.0, -0.01600000075995922, 1.008000047877431, 0.0, 0.0, 0.0, 0.0, 0.0, 1.7398814883441477E9, 0.0, 2025-02-18 12:24:48.344
4.0, 6.866456318646669, 21.055636750534177, 12.723139649257064, -89.14051544386894, 0.0, -0.01600000075995922, 1.008000047877431, 0.0, 0.0, 0.0, 0.0, 0.0, 1.7398814883441732E9, 0.0, 2025-02-18 12:24:48.344
5.0, 2.647849168628454, -138.35946881072596, 3.5603847578167915, -69.25733732944354, 0.0, -0.01600000075995922, 1.008000047877431, 0.0, 0.0, 0.0, 0.0, 0.0, 1.7398814883733327E9, 0.0, 2025-02-18 12:24:48.373
5.0, 11.126202368177474, 72.45308184158057, 10.666194673627615, 92.3213003561832, 0.0, -0.01600000075995922, 1.008000047877431, 0.0, 0.0, 0.0, 0.0, 0.0, 1.7398814883733842E9, 0.0, 2025-02-18 12:24:48.373
6.0, 11.70214696135372, 79.18677171180025, 14.368695629760623, 47.61266633588821, 0.0, -0.01600000075995922, 1.008000047877431, 0.0, 0.0, 0.0, 0.0, 0.0, 1.7398814883739057E9, 0.0, 2025-02-18 12:24:48.373
6.0, 5.823024231009185, 1.6418160805478692, 8.545671398751438, -68.70570208597928, 0.0, -0.01600000075995922, 1.008000047877431, 0.0, 0.0, 0.0, 0.0, 0.0, 1.739881488373952E9, 0.0, 2025-02-18 12:24:48.373
7.0, 3.9343747533857822, -160.94098474318162, 9.203893790952861, -51.71720653725788, 0.0, -0.01600000075995922, 1.008000047877431, 0.0, 0.0, 0.0, 0.0, 0.0, 1.7398814883747292E9, 0.0, 2025-02-18 12:24:48.374
7.0, 10.337083477526903, 70.34003836661577, 14.200400131754577, 106.70869548572227, 0.0, -0.01600000075995922, 1.008000047877431, 0.0, 0.0, 0.0, 0.0, 0.0, 1.7398814883747804E9, 0.0, 2025-02-18 12:24:48.374
8.0, 8.620469397865236, 82.87805296806619, 13.437460540793836, 41.89435930363834, 0.0, -0.01600000075995922, 1.008000047877431, 0.0, 0.0, 0.0, 0.0, 0.0, 1.7398814883755066E9, 0.0, 2025-02-18 12:24:48.375
8.0, 5.538791834376752, 4.117629851214588, 10.924247770570219, -86.1149363797158, 0.0, -0.01600000075995922, 1.008000047877431, 0.0, 0.0, 0.0, 0.0, 0.0, 1.7398814883755672E9, 0.0, 2025-02-18 12:24:48.375
9.0, 2.647849168628454, -172.25418210914358, 9.757398984394968, -58.13113496126607, 0.0, -0.01600000075995922, 1.008000047877431, 0.0, 0.0, 0.0, 0.0, 0.0, 1.739881488403814E9, 0.0, 2025-02-18 12:24:48.403
9.0, 10.120169280096889, 57.83007301483303, 12.132235456258059, 93.69758353987709, 0.0, -0.01600000075995922, 1.008000047877431, 0.0, 0.0, 0.0, 0.0, 0.0, 1.7398814884038782E9, 0.0, 2025-02-18 12:24:48.403
10.0, 9.076737192459404, 95.3580991202034, 13.25046554300934, 33.34494800493121, 0.0, -0.01600000075995922, 0.9920000471174717, 0.0, 0.0, 0.0, 0.0, 0.0, 1.739881488404172E9, 0.0, 2025-02-18 12:24:48.404
10.0, 9.955613682046533, 18.07867638580501, 10.0790303805843, -84.2636859016493, 0.0, -0.01600000075995922, 0.9920000471174717, 0.0, 0.0, 0.0, 0.0, 0.0, 1.7398814884042184E9, 0.0, 2025-02-18 12:24:48.404
11.0, 1.6455559805035591, -137.80970351723954, 9.069257392548025, -50.11278945626691, 0.0, -0.01600000075995922, 0.9920000471174717, 0.0, 0.0, 0.0, 0.0, 0.0, 1.739881488433961E9, 0.0, 2025-02-18 12:24:48.433
11.0, 12.685740649700165, 68.09983829315752, 13.048510945402086, 111.95577512355521, 0.0, -0.01600000075995922, 0.9920000471174717, 0.0, 0.0, 0.0, 0.0, 0.0, 1.739881488435787E9, 0.0, 2025-02-18 12:24:48.435
12.0, 8.43721430003643, 97.3963445960544, 15.415867617353797, 49.85286640934646, 0.0, -0.01600000075995922, 0.9920000471174717, 0.0, 0.0, 0.0, 0.0, 0.0, 1.739881488437945E9, 0.0, 2025-02-18 12:24:48.437
12.0, 10.09398998040706, 34.444478591904044, 14.937160423025489, -73.86676402483135, 0.0, -0.01600000075995922, 0.9920000471174717, 0.0, 0.0, 0.0, 0.0, 0.0, 1.739881488438014E9, 0.0, 2025-02-18 12:24:48.438
13.0, 3.6015236573293805, -134.66070775454864, 10.580176974646747, -34.53984604077414, 0.0, -0.01600000075995922, 0.9920000471174717, 0.0, 0.0, 0.0, 0.0, 0.0, 1.739881488438076E9, 0.0, 2025-02-18 12:24:48.438
13.0, 11.623609062284231, 80.38914954755455, 14.847402824088931, 143.03808365529403, 0.0, -0.01600000075995922, 0.9920000471174717, 0.0, 0.0, 0.0, 0.0, 0.0, 1.739881488438129E9, 0.0, 2025-02-18 12:24:48.438
14.0, 11.530111563391984, 92.45967665454373, 14.450973428785801, 76.70908799115568, 0.0, -0.01600000075995922, 0.9920000471174717, 0.0, 0.0, 0.0, 0.0, 0.0, 1.7398814884381878E9, 0.0, 2025-02-18 12:24:48.438
14.0, 7.2254867143929005, 30.59612153749913, 11.507672163657844, -48.30828772764653, 0.0, -0.01600000075995922, 0.9920000471174717, 0.0, 0.0, 0.0, 0.0, 0.0, 1.739881488438238E9, 0.0, 2025-02-18 12:24:48.438
15.0, 1.2753058848902583, -151.2359443581663, 9.166494791395962, -17.770134639460593, 0.0, -0.01600000075995922, 0.9920000471174717, 0.0, 0.0, 0.0, 0.0, 0.0, 1.739881488463278E9, 0.0, 2025-02-18 12:24:48.463
15.0, 14.735205825418234, 53.42073096707463, 12.753058848902583, 153.95485162595287, 0.0, -0.01600000075995922, 0.9920000471174717, 0.0, 0.0, 0.0, 0.0, 0.0, 1.7398814884633243E9, 0.0, 2025-02-18 12:24:48.463
16.0, 12.244432454928756, 95.59371281741187, 13.138268544338644, 65.66516342200339, 0.0, -0.01600000075995922, 0.9920000471174717, 0.0, 0.0, 0.0, 0.0, 0.0, 1.7398814884639544E9, 0.0, 2025-02-18 12:24:48.463
16.0, 8.803724495694041, 14.716506325639784, 8.728926496580243, -71.91079634800553, 0.0, -0.01600000075995922, 0.9920000471174717, 0.0, 0.0, 0.0, 0.0, 0.0, 1.739881488464E9, 0.0, 2025-02-18 12:24:48.464
17.0, 5.359276636503637, -138.419307210017, 10.827010371722281, -45.022785616572946, 0.0, -0.01600000075995922, 0.9920000471174717, 0.0, 0.0, 0.0, 0.0, 0.0, 1.7398814884936528E9, 0.0, 2025-02-18 12:24:48.493
17.0, 13.635675238445401, 57.13071172311902, 11.833043459802866, 119.97412062855437, 0.0, -0.01600000075995922, 0.9920000471174717, 0.0, 0.0, 0.0, 0.0, 0.0, 1.7398814884937038E9, 0.0, 2025-02-18 12:24:48.493
18.0, 14.05080413352698, 97.8787916903384, 11.305717566050589, 37.08110806066543, 0.0, -0.01600000075995922, 0.9920000471174717, 0.0, 0.0, 0.0, 0.0, 0.0, 1.7398814884939363E9, 0.0, 2025-02-18 12:24:48.493
18.0, 2.894682565703988, 18.8977144761011, 7.169388215057552, -109.79598289914429, 0.0, -0.01600000075995922, 0.9920000471174717, 0.0, 0.0, 0.0, 0.0, 0.0, 1.7398814884939823E9, 0.0, 2025-02-18 12:24:48.493
19.0, 3.781038855202496, -152.0512425485067, 7.962247005663812, -86.4646170255728, 0.0, -0.01600000075995922, 0.9920000471174717, 0.0, 0.0, 0.0, 0.0, 0.0, 1.7398814884946733E9, 0.0, 2025-02-18 12:24:48.494
19.0, 6.391489024274051, 68.14845699258149, 10.325863777659833, 87.37715261476114, 0.0, -0.01600000075995922, 0.9920000471174717, 0.0, 0.0, 0.0, 0.0, 0.0, 1.7398814884947278E9, 0.0, 2025-02-18 12:24:48.494
20.0, 9.559184286743402, 110.63559043919668, 15.019438222050667, 4.925448241643608, 0.0, -0.01600000075995922, 1.008000047877431, 0.0, 0.0, 0.0, 0.0, 0.0, 1.7398814884954343E9, 0.0, 2025-02-18 12:24:48.495
20.0, 6.556044622324407, 29.41431315150112, 12.386548653244972, -139.0307808527723, 0.0, -0.01600000075995922, 1.008000047877431, 0.0, 0.0, 0.0, 0.0, 0.0, 1.739881488495482E9, 0.0, 2025-02-18 12:24:48.495
21.0, 0.9162754891440272, -113.20490170875564, 7.079630616120994, -95.07760662352666, 0.0, -0.01600000075995922, 1.008000047877431, 0.0, 0.0, 0.0, 0.0, 0.0, 1.7398814885243304E9, 0.0, 2025-02-18 12:24:48.524
21.0, 12.528664851561189, 76.42111569456756, 14.787564424797893, 95.11126572312787, 0.0, -0.01600000075995922, 1.008000047877431, 0.0, 0.0, 0.0, 0.0, 0.0, 1.739881488524381E9, 0.0, 2025-02-18 12:24:48.524
22.0, 15.572943415492773, 124.00947268074378, 14.985779122449458, 15.954413210973144, 0.0, -0.01600000075995922, 1.008000047877431, 0.0, 0.0, 0.0, 0.0, 0.0, 1.739881488524708E9, 0.0, 2025-02-18 12:24:48.524
22.0, 4.959107341244817, 52.167864481918514, 10.595136574469507, -122.01797595433891, 0.0, -0.01600000075995922, 1.008000047877431, 0.0, 0.0, 0.0, 0.0, 0.0, 1.739881488524742E9, 0.0, 2025-02-18 12:24:48.524
23.0, 4.457960747182369, -120.28079242492095, 6.649542121216655, -53.145848320331424, 0.0, -0.01600000075995922, 1.008000047877431, 0.0, 0.0, 0.0, 0.0, 0.0, 1.7398814885536642E9, 0.0, 2025-02-18 12:24:48.553
23.0, 10.643755273893476, 41.8719199039042, 16.223686007782817, 146.74058461142704, 0.0, -0.01600000075995922, 1.008000047877431, 0.0, 0.0, 0.0, 0.0, 0.0, 1.7398814885537093E9, 0.0, 2025-02-18 12:24:48.553
24.0, 10.03415158111602, 93.25253544514999, 15.202693319879472, 64.80124653223902, 0.0, -0.01600000075995922, 1.008000047877431, 0.0, 0.0, 0.0, 0.0, 0.0, 1.7398814885539625E9, 0.0, 2025-02-18 12:24:48.553
24.0, 8.4484339999035, 13.878768735565245, 12.969973046332598, -53.731142663396895, 0.0, -0.01600000075995922, 1.008000047877431, 0.0, 0.0, 0.0, 0.0, 0.0, 1.7398814885539973E9, 0.0, 2025-02-18 12:24:48.553
25.0, -0.9387148888781667, -161.0195226422511, 7.318984213285148, -12.27996150450781, 0.0, -0.01600000075995922, 1.008000047877431, 0.0, 0.0, 0.0, 0.0, 0.0, 1.7398814885558684E9, 0.0, 2025-02-18 12:24:48.555
25.0, 7.872489406727254, 34.440738691948354, 10.565217374823987, 166.71539027476683, 0.0, -0.01600000075995922, 1.008000047877431, 0.0, 0.0, 0.0, 0.0, 0.0, 1.7398814885559163E9, 0.0, 2025-02-18 12:24:48.555
26.0, 10.381962276995182, 100.17135036317632, 8.4858329994604, 75.14206990972161, 0.0, -0.01600000075995922, 1.008000047877431, 0.0, 0.0, 0.0, 0.0, 0.0, 1.7398814885575483E9, 0.0, 2025-02-18 12:24:48.557
26.0, 4.360723348334432, 8.47461329959333, 11.556290863081813, -60.627518181689084, 0.0, -0.01600000075995922, 1.008000047877431, 0.0, 0.0, 0.0, 0.0, 0.0, 1.7398814885575726E9, 0.0, 2025-02-18 12:24:48.557
27.0, 5.377976136282086, -155.0955211124383, 6.084817227907479, -22.643224281724542, 0.0, -0.01600000075995922, 1.008000047877431, 0.0, 0.0, 0.0, 0.0, 0.0, 1.7398814885837228E9, 0.0, 2025-02-18 12:24:48.583
27.0, 8.010865705087781, 40.97060401458293, 8.44469409994781, 158.56988817127421, 0.0, -0.01600000075995922, 1.008000047877431, 0.0, 0.0, 0.0, 0.0, 0.0, 1.7398814885837996E9, 0.0, 2025-02-18 12:24:48.583
28.0, 13.549657539464533, 104.81630610814318, 13.164447844028473, 63.24918805062771, 0.0, -0.01600000075995922, 1.008000047877431, 0.0, 0.0, 0.0, 0.0, 0.0, 1.7398814885840182E9, 0.0, 2025-02-18 12:24:48.584
28.0, 7.367602912709117, 2.296298572793603, 9.22259329073131, -91.43307411670685, 0.0, -0.01600000075995922, 1.008000047877431, 0.0, 0.0, 0.0, 0.0, 0.0, 1.739881488584056E9, 0.0, 2025-02-18 12:24:48.584
29.0, 2.5880107693374157, -165.0548746944405, 8.792504795826972, -40.673281968105584, 0.0, -0.01600000075995922, 1.008000047877431, 0.0, 0.0, 0.0, 0.0, 0.0, 1.7398814886137254E9, 0.0, 2025-02-18 12:24:48.613
29.0, 6.5822239220142365, 41.84574060421437, 13.104609444737434, 136.28382433531806, 0.0, -0.01600000075995922, 1.008000047877431, 0.0, 0.0, 0.0, 0.0, 0.0, 1.7398814886137834E9, 0.0, 2025-02-18 12:24:48.613
30.0, 12.397768353112042, 106.57779898727313, 11.922801058739424, 27.076875679194927, 0.0, -0.01600000075995922, 1.008000047877431, 0.0, 0.0, 0.0, 0.0, 0.0, 1.7398814886146991E9, 0.0, 2025-02-18 12:24:48.614
30.0, 3.130296262912452, 25.442539398558438, 8.743886096403003, -112.14090017136186, 0.0, -0.01600000075995922, 1.008000047877431, 0.0, 0.0, 0.0, 0.0, 0.0, 1.739881488614736E9, 0.0, 2025-02-18 12:24:48.614
31.0, -0.3291111961007118, -140.14340108959004, 11.010265469551086, -53.76667171297595, 0.0, -0.01600000075995922, 1.008000047877431, 0.0, 0.0, 0.0, 0.0, 0.0, 1.7398814886154416E9, 0.0, 2025-02-18 12:24:48.615
31.0, 10.800831072032452, 47.05168134253472, 10.49041937571019, 128.56841072672978, 0.0, -0.01600000075995922, 1.008000047877431, 0.0, 0.0, 0.0, 0.0, 0.0, 1.7398814886154747E9, 0.0, 2025-02-18 12:24:48.615
32.0, 7.932327806018293, 115.92006907658651, 11.833043459802866, 17.28207769524306, 0.0, -0.01600000075995922, 1.008000047877431, 0.0, 0.0, 0.0, 0.0, 0.0, 1.7398814886160378E9, 0.0, 2025-02-18 12:24:48.616
32.0, 2.206540973857045, 35.77588297612965, 11.874182359315455, -125.16697171702981, 0.0, -0.01600000075995922, 1.008000047877431, 0.0, 0.0, 0.0, 0.0, 0.0, 1.7398814886160774E9, 0.0, 2025-02-18 12:24:48.616
33.0, 0.3665101956576109, -133.32182357041165, 9.925694482401013, -58.321869859006256, 0.0, -0.01600000075995922, 1.008000047877431, 0.0, 0.0, 0.0, 0.0, 0.0, 1.7398814886433535E9, 0.0, 2025-02-18 12:24:48.643
33.0, 9.64520198572427, 40.99678331427276, 10.961646770127118, 125.20624066656455, 0.0, -0.01600000075995922, 1.008000047877431, 0.0, 0.0, 0.0, 0.0, 0.0, 1.7398814886433947E9, 0.0, 2025-02-18 12:24:48.643
34.0, 13.385101941414177, 113.69108870299533, 18.17217388469726, 25.33782219979912, 0.0, -0.01600000075995922, 1.008000047877431, 0.0, 0.0, 0.0, 0.0, 0.0, 1.7398814886439803E9, 0.0, 2025-02-18 12:24:48.643
34.0, 7.397522112354636, 34.25748359411955, 10.224886478856206, -124.87899942044169, 0.0, -0.01600000075995922, 1.008000047877431, 0.0, 0.0, 0.0, 0.0, 0.0, 1.7398814886440096E9, 0.0, 2025-02-18 12:24:48.644
35.0, 7.980946505442262, -135.5695034437813, 8.04452480468899, -49.75749896047637, 0.0, -0.01600000075995922, 1.008000047877431, 0.0, 0.0, 0.0, 0.0, 0.0, 1.7398814886734793E9, 0.0, 2025-02-18 12:24:48.673
35.0, 11.313197365961969, 63.798953344114125, 14.252758731134236, 141.92359346849844, 0.0, -0.01600000075995922, 1.008000047877431, 0.0, 0.0, 0.0, 0.0, 0.0, 1.7398814886735284E9, 0.0, 2025-02-18 12:24:48.673
36.0, 9.764878784306347, 112.57285861624405, 17.031504398211837, 32.70168521255255, 0.0, -0.01600000075995922, 1.008000047877431, 0.0, 0.0, 0.0, 0.0, 0.0, 1.7398814886738138E9, 0.0, 2025-02-18 12:24:48.673
36.0, 10.45302037615329, 53.05796067137271, 10.606356274336576, -108.4570987150073, 0.0, -0.01600000075995922, 1.008000047877431, 0.0, 0.0, 0.0, 0.0, 0.0, 1.7398814886738527E9, 0.0, 2025-02-18 12:24:48.673
37.0, -2.9246017653495073, -134.933720451314, 7.782731807790697, -38.111450498458, 0.0, -0.01600000075995922, 1.008000047877431, 0.0, 0.0, 0.0, 0.0, 0.0, 1.7398814886745014E9, 0.0, 2025-02-18 12:24:48.674
37.0, 7.2666256139054894, 38.087141148746014, 14.305117330513895, 166.23294318048283, 0.0, -0.01600000075995922, 1.008000047877431, 0.0, 0.0, 0.0, 0.0, 0.0, 1.7398814886745324E9, 0.0, 2025-02-18 12:24:48.674
38.0, 12.195813755504787, 101.12502485187724, 14.944640222936869, 61.29696027375758, 0.0, -0.01600000075995922, 1.008000047877431, 0.0, 0.0, 0.0, 0.0, 0.0, 1.739881488675341E9, 0.0, 2025-02-18 12:24:48.675
38.0, 7.715413608588278, 16.223686007782817, 12.427687552757561, -94.61946887895465, 0.0, -0.01600000075995922, 1.008000047877431, 0.0, 0.0, 0.0, 0.0, 0.0, 1.7398814886774511E9, 0.0, 2025-02-18 12:24:48.677
39.0, -0.2655328968539834, -152.29059614567086, 4.390642547979951, -33.32811845513061, 0.0, -0.01600000075995922, 1.008000047877431, 0.0, 0.0, 0.0, 0.0, 0.0, 1.739881488703696E9, 0.0, 2025-02-18 12:24:48.703
39.0, 10.004232381470501, 31.676952624693513, 11.709626761265099, 161.2401767396368, 0.0, -0.01600000075995922, 1.008000047877431, 0.0, 0.0, 0.0, 0.0, 0.0, 1.73988148870556E9, 0.0, 2025-02-18 12:24:48.705
40.0, 7.726633308455348, 102.20211603911594, 13.508518639951944, 39.283909134566784, 0.0, -0.01600000075995922, 0.9920000471174717, 0.0, 0.0, 0.0, 0.0, 0.0, 1.7398814887056468E9, 0.0, 2025-02-18 12:24:48.705
40.0, 7.139469015412033, 24.855375105515122, 8.07444400433451, -116.66991901770234, 0.0, -0.01600000075995922, 0.9920000471174717, 0.0, 0.0, 0.0, 0.0, 0.0, 1.7398814887056963E9, 0.0, 2025-02-18 12:24:48.705
41.0, 2.3187379725277424, -145.5662560253404, 6.664501721039414, -34.83903803722933, 0.0, -0.01600000075995922, 0.9920000471174717, 0.0, 0.0, 0.0, 0.0, 0.0, 1.7398814887338998E9, 0.0, 2025-02-18 12:24:48.733
41.0, 13.24672564305365, 34.22008459456265, 11.167341267690063, 174.08673308743164, 0.0, -0.01600000075995922, 0.9920000471174717, 0.0, 0.0, 0.0, 0.0, 0.0, 1.7398814887339685E9, 0.0, 2025-02-18 12:24:48.733
42.0, 11.339376665651798, 112.16520952107385, 14.982039222493768, 55.18222384620458, 0.0, -0.01600000075995922, 0.9920000471174717, 0.0, 0.0, 0.0, 0.0, 0.0, 1.7398814887340956E9, 0.0, 2025-02-18 12:24:48.734
42.0, 7.363863012753427, 39.85611382778734, 9.405848388560116, -98.13871473725885, 0.0, -0.01600000075995922, 0.9920000471174717, 0.0, 0.0, 0.0, 0.0, 0.0, 1.739881488734131E9, 0.0, 2025-02-18 12:24:48.734
43.0, 5.882862630300224, -129.19297401933, 5.953920729458332, -31.57410537591204, 0.0, -0.01600000075995922, 0.9920000471174717, 0.0, 0.0, 0.0, 0.0, 0.0, 1.7398814887345872E9, 0.0, 2025-02-18 12:24:48.734
43.0, 11.24213926680386, 60.145071087405086, 13.164447844028473, 148.9770447849296, 0.0, -0.01600000075995922, 0.9920000471174717, 0.0, 0.0, 0.0, 0.0, 0.0, 1.739881488734639E9, 0.0, 2025-02-18 12:24:48.734
44.0, 15.255051919259131, 153.00117713725194, 12.764278548769653, 3.4107887595891953, 0.0, -0.01600000075995922, 0.9920000471174717, 0.0, 0.0, 0.0, 0.0, 0.0, 1.7398814887353745E9, 0.0, 2025-02-18 12:24:48.735
44.0, 9.23007309064269, 54.60627925302833, 12.536144651472569, -151.49960730504245, 0.0, -0.01600000075995922, 0.9920000471174717, 0.0, 0.0, 0.0, 0.0, 0.0, 1.7398814887354136E9, 0.0, 2025-02-18 12:24:48.735
45.0, 1.4697806825861335, -116.64186976803467, 7.618176209740341, -57.27469787141308, 0.0, -0.01600000075995922, 0.9920000471174717, 0.0, 0.0, 0.0, 0.0, 0.0, 1.7398814887638545E9, 0.0, 2025-02-18 12:24:48.763
45.0, 8.968280093744397, 60.76215458009392, 16.406941105611622, 136.74383202986792, 0.0, -0.01600000075995922, 0.9920000471174717, 0.0, 0.0, 0.0, 0.0, 0.0, 1.7398814887639072E9, 0.0, 2025-02-18 12:24:48.763
46.0, 14.226579431444407, 132.86555577581748, 18.12729508522898, 13.366402441635728, 0.0, -0.01600000075995922, 0.9920000471174717, 0.0, 0.0, 0.0, 0.0, 0.0, 1.7398814887640939E9, 0.0, 2025-02-18 12:24:48.764
46.0, 6.144655627198517, 35.252296982333064, 13.575836839154363, -128.5104422774166, 0.0, -0.01600000075995922, 0.9920000471174717, 0.0, 0.0, 0.0, 0.0, 0.0, 1.7398814887641232E9, 0.0, 2025-02-18 12:24:48.764
47.0, 3.2798922611400485, -137.22627912415192, 8.88226239476353, -34.12471714569256, 0.0, -0.01600000075995922, 0.9920000471174717, 0.0, 0.0, 0.0, 0.0, 0.0, 1.7398814887935677E9, 0.0, 2025-02-18 12:24:48.793
47.0, 9.69008078519255, 23.35941512323916, 12.394028453156352, 176.2521351617761, 0.0, -0.01600000075995922, 0.9920000471174717, 0.0, 0.0, 0.0, 0.0, 0.0, 1.7398814887936308E9, 0.0, 2025-02-18 12:24:48.793
48.0, 9.499345887452364, 115.98364737583324, 15.097976121120155, 42.32444779854268, 0.0, -0.01600000075995922, 0.9920000471174717, 0.0, 0.0, 0.0, 0.0, 0.0, 1.739881488794252E9, 0.0, 2025-02-18 12:24:48.794
48.0, 2.775005767121911, 32.424932615831494, 6.769218919798732, -120.18168507609516, 0.0, -0.01600000075995922, 0.9920000471174717, 0.0, 0.0, 0.0, 0.0, 0.0, 1.7398814887943287E9, 0.0, 2025-02-18 12:24:48.794
49.0, -2.210280873812735, -138.6025623078458, 8.575590598396957, -33.69836855074391, 0.0, -0.01600000075995922, 0.9920000471174717, 0.0, 0.0, 0.0, 0.0, 0.0, 1.7398814887944856E9, 0.0, 2025-02-18 12:24:48.794
49.0, 11.773205060511827, 26.396213887259364, 11.036444769240916, 158.0163829778321, 0.0, -0.01600000075995922, 0.9920000471174717, 0.0, 0.0, 0.0, 0.0, 0.0, 1.739881488794521E9, 0.0, 2025-02-18 12:24:48.794
50.0, 15.157814520411193, 136.25016523571685, 10.617575974203646, 13.138268544338644, 0.0, -0.01600000075995922, 1.008000047877431, 0.0, 0.0, 0.0, 0.0, 0.0, 1.7398814887952597E9, 0.0, 2025-02-18 12:24:48.795
50.0, 7.603216609917581, 43.90268557984382, 12.012558657675982, -137.19448997452855, 0.0, -0.01600000075995922, 1.008000047877431, 0.0, 0.0, 0.0, 0.0, 0.0, 1.7398814887952964E9, 0.0, 2025-02-18 12:24:48.795
51.0, 3.9642939530313015, -128.54597132699564, 2.741346667520702, -37.453228106256574, 0.0, -0.01600000075995922, 1.008000047877431, 0.0, 0.0, 0.0, 0.0, 0.0, 1.7398814888237953E9, 0.0, 2025-02-18 12:24:48.823
51.0, 10.572697174735367, 36.27328967023641, 14.51081182807684, 185.4784683524631, 0.0, -0.01600000075995922, 1.008000047877431, 0.0, 0.0, 0.0, 0.0, 0.0, 1.7398814888238535E9, 0.0, 2025-02-18 12:24:48.823
52.0, 9.200153890997171, 122.06846460374072, 11.25335896667093, 36.823054963722825, 0.0, -0.01600000075995922, 1.008000047877431, 0.0, 0.0, 0.0, 0.0, 0.0, 1.7398814888240805E9, 0.0, 2025-02-18 12:24:48.824
52.0, 6.567264322191477, 37.11476716026664, 11.219699867069721, -126.69659079890698, 0.0, -0.01600000075995922, 1.008000047877431, 0.0, 0.0, 0.0, 0.0, 0.0, 1.7398814888258436E9, 0.0, 2025-02-18 12:24:48.825
53.0, 1.043432087637484, -131.79594438849017, 6.5822239220142365, -47.446240787860006, 0.0, -0.01600000075995922, 1.008000047877431, 0.0, 0.0, 0.0, 0.0, 0.0, 1.7398814888532832E9, 0.0, 2025-02-18 12:24:48.853
53.0, 10.333343577571213, 33.03827620856464, 12.315490554086864, 158.92891856702045, 0.0, -0.01600000075995922, 1.008000047877431, 0.0, 0.0, 0.0, 0.0, 0.0, 1.739881488853316E9, 0.0, 2025-02-18 12:24:48.853
54.0, 10.587656774558127, 122.02358580427244, 12.719399749301374, 15.797337412834167, 0.0, -0.01600000075995922, 1.008000047877431, 0.0, 0.0, 0.0, 0.0, 0.0, 1.7398814888536556E9, 0.0, 2025-02-18 12:24:48.853
54.0, 6.705640620552003, 37.47379755601287, 11.073843768797815, -129.12004597019404, 0.0, -0.01600000075995922, 1.008000047877431, 0.0, 0.0, 0.0, 0.0, 0.0, 1.7398814888536744E9, 0.0, 2025-02-18 12:24:48.853
55.0, 2.206540973857045, -140.42763348622248, 8.321277401410043, -14.66227777628228, 0.0, -0.01600000075995922, 1.008000047877431, 0.0, 0.0, 0.0, 0.0, 0.0, 1.7398814888544288E9, 0.0, 2025-02-18 12:24:48.854
55.0, 9.465686787851155, -11.578730262815952, 12.341669853776693, 199.9705806807615, 0.0, -0.01600000075995922, 1.008000047877431, 0.0, 0.0, 0.0, 0.0, 0.0, 1.739881488854447E9, 0.0, 2025-02-18 12:24:48.854
56.0, 10.176267779432237, 111.44714872958139, 13.792751036584377, 35.77962287608534, 0.0, -0.01600000075995922, 1.008000047877431, 0.0, 0.0, 0.0, 0.0, 0.0, 1.739881488855275E9, 0.0, 2025-02-18 12:24:48.855
56.0, 8.975759893655777, 18.606002279557288, 13.759091936983168, -134.56908020563424, 0.0, -0.01600000075995922, 1.008000047877431, 0.0, 0.0, 0.0, 0.0, 0.0, 1.7398814888552945E9, 0.0, 2025-02-18 12:24:48.855
57.0, 1.1967679858207703, -139.68339339504018, 10.87562907114625, -34.4052096423693, 0.0, -0.01600000075995922, 1.008000047877431, 0.0, 0.0, 0.0, 0.0, 0.0, 1.739881488883675E9, 0.0, 2025-02-18 12:24:48.883
57.0, 15.471966116689146, 27.611681372858584, 18.602262379601598, 176.0314810643904, 0.0, -0.01600000075995922, 1.008000047877431, 0.0, 0.0, 0.0, 0.0, 0.0, 1.7398814888837452E9, 0.0, 2025-02-18 12:24:48.883
58.0, 12.435167352668941, 129.3350902176462, 13.471119640395045, 35.78336277604103, 0.0, -0.01600000075995922, 1.008000047877431, 0.0, 0.0, 0.0, 0.0, 0.0, 1.73988148888404E9, 0.0, 2025-02-18 12:24:48.884
58.0, 5.056344740092754, 39.291388934478164, 10.423101176507771, -117.61611370649189, 0.0, -0.01600000075995922, 1.008000047877431, 0.0, 0.0, 0.0, 0.0, 0.0, 1.73988148888406E9, 0.0, 2025-02-18 12:24:48.884
59.0, 5.116183139383793, -140.1209616898559, 6.324170825071633, -19.714882616419345, 0.0, -0.01600000075995922, 1.008000047877431, 0.0, 0.0, 0.0, 0.0, 0.0, 1.7398814889133637E9, 0.0, 2025-02-18 12:24:48.913
59.0, 12.10231625661254, 21.624101543799043, 10.935467470437288, 188.56014591595158, 0.0, -0.01600000075995922, 1.008000047877431, 0.0, 0.0, 0.0, 0.0, 0.0, 1.7398814889134097E9, 0.0, 2025-02-18 12:24:48.913
60.0, 8.235259702429175, 127.01635224511847, 15.370988817885518, 23.452912622131407, 0.0, -0.01600000075995922, 0.9920000471174717, 0.0, 0.0, 0.0, 0.0, 0.0, 1.739881488913768E9, 0.0, 2025-02-18 12:24:48.913
60.0, 10.696113873273134, 48.57382062450051, 13.433720640838146, -142.4415696123615, 0.0, -0.01600000075995922, 0.9920000471174717, 0.0, 0.0, 0.0, 0.0, 0.0, 1.7398814889138076E9, 0.0, 2025-02-18 12:24:48.913
61.0, 4.349503648467362, -116.00982667552307, 9.566664086654782, -36.68654861534014, 0.0, -0.01600000075995922, 0.9920000471174717, 0.0, 0.0, 0.0, 0.0, 0.0, 1.7398814889146185E9, 0.0, 2025-02-18 12:24:48.914
61.0, 6.799138119444251, 27.091835279017687, 17.506471692584455, 182.69224288547412, 0.0, -0.01600000075995922, 0.9920000471174717, 0.0, 0.0, 0.0, 0.0, 0.0, 1.7398814889146698E9, 0.0, 2025-02-18 12:24:48.914
62.0, 12.786717948503792, 139.59363579610363, 15.931973811239004, 19.137068073265254, 0.0, -0.01600000075995922, 0.9920000471174717, 0.0, 0.0, 0.0, 0.0, 0.0, 1.7398814889157724E9, 0.0, 2025-02-18 12:24:48.915
62.0, 6.193274326622486, 28.90568675752729, 10.284724878147244, -133.52190821804106, 0.0, -0.01600000075995922, 0.9920000471174717, 0.0, 0.0, 0.0, 0.0, 0.0, 1.7398814889158206E9, 0.0, 2025-02-18 12:24:48.915
63.0, 1.772712578997016, -163.22980351606384, 10.262285478413105, -11.139292018022388, 0.0, -0.01600000075995922, 0.9920000471174717, 0.0, 0.0, 0.0, 0.0, 0.0, 1.7398814889436972E9, 0.0, 2025-02-18 12:24:48.943
63.0, 8.564370898529887, 5.725786832161248, 14.338776430115104, 215.4163674977608, 0.0, -0.01600000075995922, 0.9920000471174717, 0.0, 0.0, 0.0, 0.0, 0.0, 1.7398814889438243E9, 0.0, 2025-02-18 12:24:48.943
64.0, 10.389442076906562, 120.99885321641341, 18.17217388469726, 44.923678267747164, 0.0, -0.01600000075995922, 0.9920000471174717, 0.0, 0.0, 0.0, 0.0, 0.0, 1.7398814889442253E9, 0.0, 2025-02-18 12:24:48.944
64.0, 4.375682948157191, 23.232258524745703, 11.118722568266094, -131.41634454298764, 0.0, -0.01600000075995922, 0.9920000471174717, 0.0, 0.0, 0.0, 0.0, 0.0, 1.7398814889442596E9, 0.0, 2025-02-18 12:24:48.944
65.0, 1.2640861850231886, -166.63685237569734, 10.015452081337571, -23.97088876599446, 0.0, -0.01600000075995922, 0.9920000471174717, 0.0, 0.0, 0.0, 0.0, 0.0, 1.739881488973332E9, 0.0, 2025-02-18 12:24:48.973
65.0, 11.623609062284231, 0.5497652934864163, 16.231165807694197, 184.09470536885783, 0.0, -0.01600000075995922, 0.9920000471174717, 0.0, 0.0, 0.0, 0.0, 0.0, 1.739881488973374E9, 0.0, 2025-02-18 12:24:48.973
66.0, 18.254451683722436, 136.0444707381539, 12.132235456258059, -4.757152743637562, 0.0, -0.01600000075995922, 0.9920000471174717, 0.0, 0.0, 0.0, 0.0, 0.0, 1.7398814889752877E9, 0.0, 2025-02-18 12:24:48.975
66.0, 4.0054328525438905, 49.93140430841595, 11.212220067158341, -175.31155032292008, 0.0, -0.01600000075995922, 0.9920000471174717, 0.0, 0.0, 0.0, 0.0, 0.0, 1.7398814889771957E9, 0.0, 2025-02-18 12:24:48.977
67.0, 1.009772988036275, -130.53185820346698, 9.719999984838068, -65.01629077969119, 0.0, -0.01600000075995922, 0.9920000471174717, 0.0, 0.0, 0.0, 0.0, 0.0, 1.7398814889772491E9, 0.0, 2025-02-18 12:24:48.977
67.0, 11.23839936684817, 11.608649462461472, 17.24841859564185, 165.5036626891233, 0.0, -0.01600000075995922, 0.9920000471174717, 0.0, 0.0, 0.0, 0.0, 0.0, 1.739881488977284E9, 0.0, 2025-02-18 12:24:48.977
68.0, 6.978653317317367, 127.36416294099763, 18.441446681506932, 3.508026158437133, 0.0, -0.01600000075995922, 0.9920000471174717, 0.0, 0.0, 0.0, 0.0, 0.0, 1.739881488977322E9, 0.0, 2025-02-18 12:24:48.977
68.0, 5.714567132294178, 31.602154625579715, 14.009665234014392, -156.1520428499207, 0.0, -0.01600000075995922, 0.9920000471174717, 0.0, 0.0, 0.0, 0.0, 0.0, 1.7398814889773607E9, 0.0, 2025-02-18 12:24:48.977
69.0, 0.6395228924229741, -136.29504403518513, 9.185194291174412, -30.859784484375268, 0.0, -0.01600000075995922, 0.9920000471174717, 0.0, 0.0, 0.0, 0.0, 0.0, 1.7398814890034351E9, 0.0, 2025-02-18 12:24:49.003
69.0, 8.388595600612462, 19.522277768701315, 13.624455538578331, 189.7419543019496, 0.0, -0.01600000075995922, 0.9920000471174717, 0.0, 0.0, 0.0, 0.0, 0.0, 1.7398814890034816E9, 0.0, 2025-02-18 12:24:49.003
70.0, 14.630488626658916, 130.6702345018275, 16.369542106054723, 8.48209309950471, 0.0, -0.01600000075995922, 1.008000047877431, 0.0, 0.0, 0.0, 0.0, 0.0, 1.7398814890040789E9, 0.0, 2025-02-18 12:24:49.004
70.0, 10.651235073804855, 41.34085411019623, 11.877922259271145, -152.39718329440802, 0.0, -0.01600000075995922, 1.008000047877431, 0.0, 0.0, 0.0, 0.0, 0.0, 1.7398814890041175E9, 0.0, 2025-02-18 12:24:49.004
71.0, 3.025579064153135, -145.14364733034745, 6.533605222590268, -22.74794148048386, 0.0, 0.0, 1.008000047877431, 0.0, 0.0, 0.0, 0.0, 0.0, 1.7398814890335777E9, 0.0, 2025-02-18 12:24:49.033
71.0, 7.5882570100948215, 7.24044631421566, 14.982039222493768, -266.0602227477357, 0.0, 0.0, 1.008000047877431, 0.0, 0.0, 0.0, 0.0, 0.0, 1.7398814890337105E9, 0.0, 2025-02-18 12:24:49.033
72.0, 11.141161968000233, 114.32313179550692, 13.901208135299385, -441.5269789188169, 0.0, 0.0, 1.008000047877431, 0.0, 0.0, 0.0, 0.0, 0.0, 1.7398814890338275E9, 0.0, 2025-02-18 12:24:49.033
72.0, 8.534451698884368, 16.8594690002501, 13.830150036141276, -595.3565438962542, 0.0, 0.0, 1.008000047877431, 0.0, 0.0, 0.0, 0.0, 0.0, 1.739881489033863E9, 0.0, 2025-02-18 12:24:49.033
73.0, 4.742193143814802, -161.81238143285736, 10.06033088080585, -473.05620549526066, 0.0, 0.0, 1.008000047877431, 0.0, 0.0, 0.0, 0.0, 0.0, 1.739881489034567E9, 0.0, 2025-02-18 12:24:49.034
73.0, 12.382808753289282, -24.664640207774937, 11.829303559847176, -235.9241089047864, 0.0, 0.0, 1.008000047877431, 0.0, 0.0, 0.0, 0.0, 0.0, 1.7398814890345955E9, 0.0, 2025-02-18 12:24:49.034
74.0, 16.47051940485835, 121.09235071530566, 17.005325098522007, -453.17676728079095, 0.0, 0.0, 1.008000047877431, 0.0, 0.0, 0.0, 0.0, 0.0, 1.7398814890356228E9, 0.0, 2025-02-18 12:24:49.035
74.0, 4.02413235232234, 20.015944562852383, 13.370142341591418, -634.8424076284282, 0.0, 0.0, 1.008000047877431, 0.0, 0.0, 0.0, 0.0, 0.0, 1.7398814890356784E9, 0.0, 2025-02-18 12:24:49.035
75.0, 1.7577529791742563, -158.88403976755217, 5.983839929103851, -509.40429316461086, 0.0, 0.0, 1.008000047877431, 0.0, 0.0, 0.0, 0.0, 0.0, 1.7398814890633473E9, 0.0, 2025-02-18 12:24:49.063
75.0, 10.939207370392978, -9.24503269046545, 14.989519022405148, -277.36968021374196, 0.0, 0.0, 1.008000047877431, 0.0, 0.0, 0.0, 0.0, 0.0, 1.739881489063387E9, 0.0, 2025-02-18 12:24:49.063
76.0, 13.153228144161403, 116.75406676670536, 15.748718713410199, -482.5424617328681, 0.0, 0.0, 1.008000047877431, 0.0, 0.0, 0.0, 0.0, 0.0, 1.7398814890641708E9, 0.0, 2025-02-18 12:24:49.064
76.0, 2.8797229658812284, 17.132481697015464, 7.6667949091643095, -649.2223229580559, 0.0, 0.0, 1.008000047877431, 0.0, 0.0, 0.0, 0.0, 0.0, 1.7398814890642343E9, 0.0, 2025-02-18 12:24:49.064
77.0, 7.128249315544963, -157.38433988532051, 10.89058867096901, -513.2825694186613, 0.0, 0.0, 1.008000047877431, 0.0, 0.0, 0.0, 0.0, 0.0, 1.7398814890946858E9, 0.0, 2025-02-18 12:24:49.094
77.0, 10.292204678058624, -39.39236623328179, 10.89058867096901, -755.4242619997822, 0.0, 0.0, 1.008000047877431, 0.0, 0.0, 0.0, 0.0, 0.0, 1.739881489094753E9, 0.0, 2025-02-18 12:24:49.094
78.0, 9.798537883907557, 99.13165817549452, 11.021485169418156, -966.4275475498289, 0.0, 0.0, 1.008000047877431, 0.0, 0.0, 0.0, 0.0, 0.0, 1.7398814890951111E9, 0.0, 2025-02-18 12:24:49.095
78.0, 8.684047697111964, 0.5609849933534861, 15.438307017087936, -1129.8162968140095, 0.0, 0.0, 1.008000047877431, 0.0, 0.0, 0.0, 0.0, 0.0, 1.7398814890951529E9, 0.0, 2025-02-18 12:24:49.095
79.0, 5.725786832161248, -179.89853761857376, 8.975759893655777, -1004.7933112452738, 0.0, 0.0, 1.008000047877431, 0.0, 0.0, 0.0, 0.0, 0.0, 1.7398814890954826E9, 0.0, 2025-02-18 12:24:49.095
79.0, 17.487772192806005, -45.82125425711274, 13.070950345136225, -769.1983135365881, 0.0, 0.0, 1.008000047877431, 0.0, 0.0, 0.0, 0.0, 0.0, 1.7398814890973852E9, 0.0, 2025-02-18 12:24:49.097
80.0, 14.712766425684094, 94.34458623221144, 14.92220082320273, -989.8767202720046, 0.0, 0.0, 1.008000047877431, 0.0, 0.0, 0.0, 0.0, 0.0, 1.739881489099036E9, 0.0, 2025-02-18 12:24:49.099
80.0, 8.332497101277113, 11.474013064056635, 7.124509415589273, -1152.5623683445156, 0.0, 0.0, 1.008000047877431, 0.0, 0.0, 0.0, 0.0, 0.0, 1.739881489099054E9, 0.0, 2025-02-18 12:24:49.099
81.0, 5.030165440402925, -171.2107500215061, 9.117876091971993, -1003.7723185573705, 0.0, 0.0, 1.008000047877431, 0.0, 0.0, 0.0, 0.0, 0.0, 1.7398814891234648E9, 0.0, 2025-02-18 12:24:49.123
81.0, 10.666194673627615, -50.20441700518131, 13.224286243319511, -759.4409145521931, 0.0, 0.0, 1.008000047877431, 0.0, 0.0, 0.0, 0.0, 0.0, 1.739881489123543E9, 0.0, 2025-02-18 12:24:49.123
82.0, 11.877922259271145, 92.25024225702509, 15.565463615581393, -963.0317183900625, 0.0, 0.0, 1.008000047877431, 0.0, 0.0, 0.0, 0.0, 0.0, 1.7398814891532905E9, 0.0, 2025-02-18 12:24:49.153
82.0, -0.2767525967210531, 24.870334705337882, 10.426841076463461, -1140.3777742888778, 0.0, 0.0, 1.008000047877431, 0.0, 0.0, 0.0, 0.0, 0.0, 1.739881489153407E9, 0.0, 2025-02-18 12:24:49.153
83.0, 4.117629851214588, -169.71105013927445, 4.297145049087703, -991.13893650705, 0.0, 0.0, 1.008000047877431, 0.0, 0.0, 0.0, 0.0, 0.0, 1.7398814891538575E9, 0.0, 2025-02-18 12:24:49.153
83.0, 9.207633690908551, -65.53426692355424, 11.440353964455426, -746.7963128020056, 0.0, 0.0, 1.008000047877431, 0.0, 0.0, 0.0, 0.0, 0.0, 1.7398814891538968E9, 0.0, 2025-02-18 12:24:49.153
84.0, 10.45676027610898, 114.36053079506382, 10.381962276995182, -966.4686864493415, 0.0, 0.0, 1.008000047877431, 0.0, 0.0, 0.0, 0.0, 0.0, 1.739881489154852E9, 0.0, 2025-02-18 12:24:49.154
84.0, 3.253712961450219, 12.951273546554148, 15.561723715625703, -1131.8919412894174, 0.0, 0.0, 1.008000047877431, 0.0, 0.0, 0.0, 0.0, 0.0, 1.7398814891549008E9, 0.0, 2025-02-18 12:24:49.154
85.0, 2.9881800645962358, -169.3557596434839, 9.813497483730316, -970.5208680513315, 0.0, 0.0, 1.008000047877431, 0.0, 0.0, 0.0, 0.0, 0.0, 1.7398814891554415E9, 0.0, 2025-02-18 12:24:49.155
85.0, 6.208233926445246, -62.576006058603525, 16.43686030525714, -1200.8145575728267, 0.0, 0.0, 1.008000047877431, 0.0, 0.0, 0.0, 0.0, 0.0, 1.7398814891555233E9, 0.0, 2025-02-18 12:24:49.155
86.0, 11.066363968886435, 96.18461701041088, 10.86814927123487, -1422.5401362958364, 0.0, 0.0, 1.008000047877431, 0.0, 0.0, 0.0, 0.0, 0.0, 1.7398814891559007E9, 0.0, 2025-02-18 12:24:49.155
86.0, 8.377375900745392, 5.389195836149156, 10.408141576685011, -1604.490009040106, 0.0, 0.0, 1.008000047877431, 0.0, 0.0, 0.0, 0.0, 0.0, 1.7398814891559289E9, 0.0, 2025-02-18 12:24:49.155
87.0, 7.274105413816869, -169.5464945412241, 9.69008078519255, -1451.286877305247, 0.0, 0.0, 1.008000047877431, 0.0, 0.0, 0.0, 0.0, 0.0, 1.7398814891837156E9, 0.0, 2025-02-18 12:24:49.183
87.0, 11.455313564278185, -46.834767145104706, 15.763678313232958, -1219.1288476558402, 0.0, 0.0, 1.008000047877431, 0.0, 0.0, 0.0, 0.0, 0.0, 1.739881489183763E9, 0.0, 2025-02-18 12:24:49.183
88.0, 13.183147343806922, 128.98353962181136, 16.53783760406077, -1447.088839604985, 0.0, 0.0, 1.008000047877431, 0.0, 0.0, 0.0, 0.0, 0.0, 1.7398814891842024E9, 0.0, 2025-02-18 12:24:49.184
88.0, 8.84486339520663, 24.54122350923717, 6.264332425780594, -1635.46386047313, 0.0, 0.0, 1.008000047877431, 0.0, 0.0, 0.0, 0.0, 0.0, 1.7398814891842525E9, 0.0, 2025-02-18 12:24:49.184
89.0, 6.571004222147167, -163.37939951429144, 7.573297410272062, -1477.2417829977348, 0.0, 0.0, 1.008000047877431, 0.0, 0.0, 0.0, 0.0, 0.0, 1.73988148921333E9, 0.0, 2025-02-18 12:24:49.213
89.0, 14.267718330956995, -50.24929580464959, 18.49754518084228, -1243.0380280725658, 0.0, 0.0, 1.008000047877431, 0.0, 0.0, 0.0, 0.0, 0.0, 1.7398814892133615E9, 0.0, 2025-02-18 12:24:49.213
