%OpenBCI Raw EXG Data
%Number of channels = 4
%Sample Rate = 200 Hz
%Board = OpenBCI_GUI$BoardGanglionNative
Sample Index, EXG Channel 0, EXG Channel 1, EXG Channel 2, EXG Channel 3, Accel Channel 0, Accel Channel 1, Accel Channel 2, Other, Other, Other, Other, Other, Timestamp, Marker Channel, Timestamp (Formatted)
0.0, 441.6279562176205, 216.5140281347558, 11.470273164100945, -98.20790288643911, 0.0, 0.0, 0.0, 0.0, 0.0, 0.0, 0.0, 0.0, 1.7400581355650878E9, 0.0, 2025-02-20 13:28:55.565
1.0, 390.37636722484604, 156.05480545107275, 10.681154273450375, 106.39454388944432, 0.0, -0.01600000075995922, 0.0, 0.0, 0.0, 0.0, 0.0, 0.0, 1.740058135565827E9, 0.0, 2025-02-20 13:28:55.565
1.0, 567.9150279713795, 347.1019848375581, 15.060577121563256, 127.44270084006712, 0.0, -0.01600000075995922, 0.0, 0.0, 0.0, 0.0, 0.0, 0.0, 1.740058135565927E9, 0.0, 2025-02-20 13:28:55.565
2.0, 622.4165900256485, 402.4263248820789, 13.70299343764782, -74.10798757197335, 0.0, -0.01600000075995922, 0.0, 0.0, 0.0, 0.0, 0.0, 0.0, 1.740058135595543E9, 0.0, 2025-02-20 13:28:55.595
2.0, 445.80542446812615, 214.77871455531567, 17.211019596084952, -99.21019607456401, 0.0, -0.01600000075995922, 0.0, 0.0, 0.0, 0.0, 0.0, 0.0, 1.7400581355958822E9, 0.0, 2025-02-20 13:28:55.595
3.0, 380.7461248389445, 149.83909172471613, 15.30741051863879, 111.0357597344555, 0.0, -0.01600000075995922, 0.0, 0.0, 0.0, 0.0, 0.0, 0.0, 1.740058135596002E9, 0.0, 2025-02-20 13:28:55.596
3.0, 565.4504339005798, 341.83620569994673, 14.312597130425274, 130.84600979974493, 0.0, -0.01600000075995922, 0.0, 0.0, 0.0, 0.0, 0.0, 0.0, 1.7400581355960624E9, 0.0, 2025-02-20 13:28:55.596
4.0, 617.5995988827199, 405.8333737417124, 12.10605615656823, -81.19883788796142, 0.0, -0.01600000075995922, 0.0, 0.0, 0.0, 0.0, 0.0, 0.0, 1.7400581355962667E9, 0.0, 2025-02-20 13:28:55.596
4.0, 441.25396622205153, 210.07018051110208, 13.198106943629682, -95.59371281741187, 0.0, -0.01600000075995922, 0.0, 0.0, 0.0, 0.0, 0.0, 0.0, 1.7400581355963364E9, 0.0, 2025-02-20 13:28:55.596
5.0, 380.8209228380583, 150.02234682254493, 16.391981505788863, 108.61978436307982, 0.0, -0.01600000075995922, 0.0, 0.0, 0.0, 0.0, 0.0, 0.0, 1.7400581355969408E9, 0.0, 2025-02-20 13:28:55.596
5.0, 567.8402299722657, 345.31431265873834, 13.957306634634733, 124.0767908799462, 0.0, -0.01600000075995922, 0.0, 0.0, 0.0, 0.0, 0.0, 0.0, 1.7400581355969915E9, 0.0, 2025-02-20 13:28:55.596
6.0, 624.9223229959607, 407.6995838196017, 11.930280858650804, -90.34289327962324, 0.0, -0.01600000075995922, 0.0, 0.0, 0.0, 0.0, 0.0, 0.0, 1.7400581356254919E9, 0.0, 2025-02-20 13:28:55.625
6.0, 439.20824094628915, 210.8742590015754, 10.636275473982096, -108.46270856494084, 0.0, -0.01600000075995922, 0.0, 0.0, 0.0, 0.0, 0.0, 0.0, 1.7400581356256187E9, 0.0, 2025-02-20 13:28:55.625
7.0, 379.7550513506867, 147.09774505719543, 13.602016138844192, 103.23806832684204, 0.0, -0.01600000075995922, 0.0, 0.0, 0.0, 0.0, 0.0, 0.0, 1.7400581356258235E9, 0.0, 2025-02-20 13:28:55.625
7.0, 568.1095027690753, 340.72545541310683, 17.23719889577478, 113.85190440109, 0.0, -0.01600000075995922, 0.0, 0.0, 0.0, 0.0, 0.0, 0.0, 1.7400581356258736E9, 0.0, 2025-02-20 13:28:55.625
8.0, 629.3316650437191, 400.7545896018855, 9.873335883021355, -98.53327418258414, 0.0, -0.01600000075995922, 0.0, 0.0, 0.0, 0.0, 0.0, 0.0, 1.7400581356548789E9, 0.0, 2025-02-20 13:28:55.654
8.0, 433.8265249100514, 209.18008432164788, 13.037291245535016, -108.96759505895898, 0.0, -0.01600000075995922, 0.0, 0.0, 0.0, 0.0, 0.0, 0.0, 1.7400581356550364E9, 0.0, 2025-02-20 13:28:55.655
9.0, 380.3870944431983, 142.3667716132477, 17.173620596528053, 92.19788365764543, 0.0, -0.01600000075995922, 0.0, 0.0, 0.0, 0.0, 0.0, 0.0, 1.7400581356553404E9, 0.0, 2025-02-20 13:28:55.655
9.0, 571.6399683272466, 343.5565596795641, 10.385702176950872, 109.26678705541417, 0.0, -0.01600000075995922, 0.0, 0.0, 0.0, 0.0, 0.0, 0.0, 1.7400581356554365E9, 0.0, 2025-02-20 13:28:55.655
10.0, 641.2021075030789, 416.12931831972674, 10.004232381470501, -95.09630612330511, 0.0, -0.01600000075995922, 0.49600002355873585, 0.0, 0.0, 0.0, 0.0, 0.0, 1.7400581356559663E9, 0.0, 2025-02-20 13:28:55.655
10.0, 437.6262632650323, 208.7275564270094, 10.703593673184514, -112.44944191770628, 0.0, -0.01600000075995922, 0.49600002355873585, 0.0, 0.0, 0.0, 0.0, 0.0, 1.7400581356560414E9, 0.0, 2025-02-20 13:28:55.656
11.0, 372.2266327398829, 136.45024988334626, 16.56775680370629, 95.01028842432424, 0.0, -0.01600000075995922, 0.49600002355873585, 0.0, 0.0, 0.0, 0.0, 0.0, 1.7400581356572864E9, 0.0, 2025-02-20 13:28:55.657
11.0, 574.759044890292, 354.2638932527043, 9.779838384129107, 110.6991687384434, 0.0, -0.01600000075995922, 0.49600002355873585, 0.0, 0.0, 0.0, 0.0, 0.0, 1.7400581356573582E9, 0.0, 2025-02-20 13:28:55.657
12.0, 643.311411078088, 422.8760978397913, 8.777545196004212, -98.42481708386913, 0.0, -0.01600000075995922, 0.49600002355873585, 0.0, 0.0, 0.0, 0.0, 0.0, 1.7400581356851697E9, 0.0, 2025-02-20 13:28:55.685
12.0, 434.32019170420244, 210.13001891039312, 13.156968044117093, -109.37150425417349, 0.0, -0.01600000075995922, 0.49600002355873585, 0.0, 0.0, 0.0, 0.0, 0.0, 1.7400581356853647E9, 0.0, 2025-02-20 13:28:55.685
13.0, 364.76927222823724, 134.8046939028427, 13.127048844471574, 97.9161906898953, 0.0, -0.01600000075995922, 0.49600002355873585, 0.0, 0.0, 0.0, 0.0, 0.0, 1.7400581356856885E9, 0.0, 2025-02-20 13:28:55.685
13.0, 571.5838698279113, 355.1165904426016, 10.325863777659833, 106.1439705924131, 0.0, -0.01600000075995922, 0.49600002355873585, 0.0, 0.0, 0.0, 0.0, 0.0, 1.7400581356857631E9, 0.0, 2025-02-20 13:28:55.685
14.0, 641.4526808001101, 422.7751205409877, 9.68260098528117, -100.75851465621963, 0.0, -0.01600000075995922, 0.49600002355873585, 0.0, 0.0, 0.0, 0.0, 0.0, 1.7400581357151363E9, 0.0, 2025-02-20 13:28:55.715
14.0, 433.24684041691944, 212.42257758323103, 11.900361659005284, -106.37584438966587, 0.0, -0.01600000075995922, 0.49600002355873585, 0.0, 0.0, 0.0, 0.0, 0.0, 1.7400581357152011E9, 0.0, 2025-02-20 13:28:55.715
15.0, 361.4856400671415, 126.30016140360385, 14.447233528830111, 102.20211603911594, 0.0, -0.01600000075995922, 0.49600002355873585, 0.0, 0.0, 0.0, 0.0, 0.0, 1.7400581357154715E9, 0.0, 2025-02-20 13:28:55.715
15.0, 573.7268325025216, 354.376090251375, 16.42938050534576, 103.98230841802433, 0.0, -0.01600000075995922, 0.49600002355873585, 0.0, 0.0, 0.0, 0.0, 0.0, 1.7400581357155187E9, 0.0, 2025-02-20 13:28:55.715
16.0, 654.0823229504749, 441.8598300148733, 10.84570987150073, -105.30623300233856, 0.0, -0.01600000075995922, 0.49600002355873585, 0.0, 0.0, 0.0, 0.0, 0.0, 1.7400581357159195E9, 0.0, 2025-02-20 13:28:55.715
16.0, 439.06238484801725, 209.01178882364184, 14.49585222825408, -105.38477090140805, 0.0, -0.01600000075995922, 0.49600002355873585, 0.0, 0.0, 0.0, 0.0, 0.0, 1.740058135715962E9, 0.0, 2025-02-20 13:28:55.715
17.0, 367.5330582954921, 134.7336358036846, 18.280630983412266, 100.60143885808066, 0.0, -0.01600000075995922, 0.49600002355873585, 0.0, 0.0, 0.0, 0.0, 0.0, 1.7400581357172508E9, 0.0, 2025-02-20 13:28:55.717
17.0, 580.4287332231179, 368.09404328884557, 16.03295111004263, 104.49093481199816, 0.0, -0.01600000075995922, 0.49600002355873585, 0.0, 0.0, 0.0, 0.0, 0.0, 1.740058135717312E9, 0.0, 2025-02-20 13:28:55.717
18.0, 649.534604604356, 439.6420693411492, 8.205340502783656, -99.89833766641095, 0.0, -0.01600000075995922, 0.49600002355873585, 0.0, 0.0, 0.0, 0.0, 0.0, 1.7400581357452135E9, 0.0, 2025-02-20 13:28:55.745
18.0, 436.35095738014206, 213.24161567352712, 13.590796438977122, -99.83475936716422, 0.0, -0.01600000075995922, 0.49600002355873585, 0.0, 0.0, 0.0, 0.0, 0.0, 1.7400581357452974E9, 0.0, 2025-02-20 13:28:55.745
19.0, 350.8194453935139, 127.65774508751929, 14.09942283295095, 108.47018836485222, 0.0, -0.01600000075995922, 0.49600002355873585, 0.0, 0.0, 0.0, 0.0, 0.0, 1.74005813574566E9, 0.0, 2025-02-20 13:28:55.745
19.0, 568.3750356659293, 356.67986862408, 12.566063851118088, 111.15169663308188, 0.0, -0.01600000075995922, 0.49600002355873585, 0.0, 0.0, 0.0, 0.0, 0.0, 1.7400581357457836E9, 0.0, 2025-02-20 13:28:55.745
20.0, 649.1456550089642, 436.20510128187016, 10.651235073804855, -93.66766434023157, 0.0, -0.01600000075995922, 0.7520000357180834, 0.0, 0.0, 0.0, 0.0, 0.0, 1.7400581357752404E9, 0.0, 2025-02-20 13:28:55.775
20.0, 427.4051166861318, 207.38493234291673, 10.625055774115026, -98.18546348670498, 0.0, -0.01600000075995922, 0.7520000357180834, 0.0, 0.0, 0.0, 0.0, 0.0, 1.7400581357753537E9, 0.0, 2025-02-20 13:28:55.775
21.0, 350.68106909515336, 119.66931878216565, 11.328156965784729, 112.63269701553509, 0.0, -0.01600000075995922, 0.7520000357180834, 0.0, 0.0, 0.0, 0.0, 0.0, 1.7400581357754855E9, 0.0, 2025-02-20 13:28:55.775
21.0, 574.2653780961409, 352.39394327485934, 13.759091936983168, 112.15772972116247, 0.0, -0.01600000075995922, 0.7520000357180834, 0.0, 0.0, 0.0, 0.0, 0.0, 1.7400581357755518E9, 0.0, 2025-02-20 13:28:55.775
22.0, 657.5753895090893, 440.84631712688133, 3.455667559057474, -91.90991136105731, 0.0, -0.01600000075995922, 0.7520000357180834, 0.0, 0.0, 0.0, 0.0, 0.0, 1.7400581357760832E9, 0.0, 2025-02-20 13:28:55.776
22.0, 429.56677886052057, 197.3507807618007, 10.396921876817942, -98.27148118568584, 0.0, -0.01600000075995922, 0.7520000357180834, 0.0, 0.0, 0.0, 0.0, 0.0, 1.7400581357762125E9, 0.0, 2025-02-20 13:28:55.776
23.0, 348.6241241195239, 112.8701806627214, 11.118722568266094, 111.23023453215137, 0.0, -0.01600000075995922, 0.7520000357180834, 0.0, 0.0, 0.0, 0.0, 0.0, 1.7400581357770452E9, 0.0, 2025-02-20 13:28:55.777
23.0, 587.2465708423406, -119.33272778615355, 13.602016138844192, 112.57659851619974, 0.0, -0.01600000075995922, 0.7520000357180834, 0.0, 0.0, 0.0, 0.0, 0.0, 1.7400581357771337E9, 0.0, 2025-02-20 13:28:55.777
24.0, 668.8698873752728, -37.84030775167048, 9.144055391661823, -102.08617914048955, 0.0, -0.01600000075995922, 0.7520000357180834, 0.0, 0.0, 0.0, 0.0, 0.0, 1.74005813580509E9, 0.0, 2025-02-20 13:28:55.805
24.0, 912.8347811847925, 195.14797968789935, 13.67681413795799, -92.74764895113185, 0.0, -0.01600000075995922, 0.7520000357180834, 0.0, 0.0, 0.0, 0.0, 0.0, 1.7400581358052504E9, 0.0, 2025-02-20 13:28:55.805
25.0, 834.8242080090567, 109.37711410410702, 11.425394364632666, 115.27306638425216, 0.0, -0.01600000075995922, 0.7520000357180834, 0.0, 0.0, 0.0, 0.0, 0.0, 1.7400581358055928E9, 0.0, 2025-02-20 13:28:55.805
25.0, 1076.4610140961595, -122.40692554973066, 14.413574429228902, 108.06253926968202, 0.0, -0.01600000075995922, 0.7520000357180834, 0.0, 0.0, 0.0, 0.0, 0.0, 1.7400581358059845E9, 0.0, 2025-02-20 13:28:55.805
26.0, 1151.868616902735, -41.56524810753763, 9.185194291174412, -98.90352427819744, 0.0, -0.01600000075995922, 0.7520000357180834, 0.0, 0.0, 0.0, 0.0, 0.0, 1.7400581358351948E9, 0.0, 2025-02-20 13:28:55.835
26.0, 912.1129804933444, 193.4650247078389, 11.107502868399024, -90.45135037833825, 0.0, -0.01600000075995922, 0.7520000357180834, 0.0, 0.0, 0.0, 0.0, 0.0, 1.740058135835282E9, 0.0, 2025-02-20 13:28:55.835
27.0, 821.7195985643193, 103.18757967744023, 11.399215064942837, 117.4422083585523, 0.0, -0.01600000075995922, 0.7520000357180834, 0.0, 0.0, 0.0, 0.0, 0.0, 1.7400581358354757E9, 0.0, 2025-02-20 13:28:55.835
27.0, 586.7416843483225, -129.11630607023835, 7.924848006106913, 114.59988439222798, 0.0, -0.01600000075995922, 0.7520000357180834, 0.0, 0.0, 0.0, 0.0, 0.0, 1.7400581358357E9, 0.0, 2025-02-20 13:28:55.835
28.0, 667.239290994592, -39.17919193580747, 8.545671398751438, -87.77358201006427, 0.0, -0.01600000075995922, 0.7520000357180834, 0.0, 0.0, 0.0, 0.0, 0.0, 1.7400581358370605E9, 0.0, 2025-02-20 13:28:55.837
28.0, 424.27856032317504, 197.59013435896486, 10.733512872830033, -85.41744503797963, 0.0, -0.01600000075995922, 0.7520000357180834, 0.0, 0.0, 0.0, 0.0, 0.0, 1.7400581358373563E9, 0.0, 2025-02-20 13:28:55.837
29.0, 329.1467251502909, 108.32620221655816, 18.57608307991177, 121.7804923071526, 0.0, -0.01600000075995922, 0.7520000357180834, 0.0, 0.0, 0.0, 0.0, 0.0, 1.740058135837674E9, 0.0, 2025-02-20 13:28:55.837
29.0, 92.77756815077737, -124.35167352668941, 9.850896483287215, 112.43822221783921, 0.0, -0.01600000075995922, 0.7520000357180834, 0.0, 0.0, 0.0, 0.0, 0.0, 1.7400581358378267E9, 0.0, 2025-02-20 13:28:55.837
30.0, 183.04379348130897, -34.65765288937837, 7.7490727081894875, -94.18751043407246, 0.0, -0.01600000075995922, 0.8800000417977571, 0.0, 0.0, 0.0, 0.0, 0.0, 1.7400581358650591E9, 0.0, 2025-02-20 13:28:55.865
30.0, 418.7322886888869, 197.45549796056002, 13.205586743541062, -85.2416697400622, 0.0, -0.01600000075995922, 0.8800000417977571, 0.0, 0.0, 0.0, 0.0, 0.0, 1.7400581358651617E9, 0.0, 2025-02-20 13:28:55.865
31.0, 319.7296570618637, 101.91227379254997, 17.469072693027556, 124.10671007959172, 0.0, -0.01600000075995922, 0.8800000417977571, 0.0, 0.0, 0.0, 0.0, 0.0, 1.7400581358655505E9, 0.0, 2025-02-20 13:28:55.865
31.0, 88.81701409770176, -118.65954579412937, 15.872135411947966, 106.72739498550072, 0.0, -0.01600000075995922, 0.8800000417977571, 0.0, 0.0, 0.0, 0.0, 0.0, 1.7400581358656008E9, 0.0, 2025-02-20 13:28:55.865
32.0, 187.3297188305296, -21.167833749204874, 11.395475164987147, -102.23951503867283, 0.0, -0.01600000075995922, 0.8800000417977571, 0.0, 0.0, 0.0, 0.0, 0.0, 1.7400581358958888E9, 0.0, 2025-02-20 13:28:55.895
32.0, 425.5164672085084, 193.19201201107353, 11.754505560733378, -90.45135037833825, 0.0, -0.01600000075995922, 0.8800000417977571, 0.0, 0.0, 0.0, 0.0, 0.0, 1.740058135895996E9, 0.0, 2025-02-20 13:28:55.895
33.0, 327.5722272689454, 100.24053851235658, 11.27953826636076, 118.03311255155131, 0.0, -0.01600000075995922, 0.8800000417977571, 0.0, 0.0, 0.0, 0.0, 0.0, 1.7400581358961685E9, 0.0, 2025-02-20 13:28:55.896
33.0, 102.55366663495079, -115.5741283306852, 14.970819522626698, 102.83415913162753, 0.0, -0.01600000075995922, 0.8800000417977571, 0.0, 0.0, 0.0, 0.0, 0.0, 1.740058135896247E9, 0.0, 2025-02-20 13:28:55.896
34.0, 197.83883770601824, -20.696606354787946, 8.82990379538387, -106.63763738656417, 0.0, -0.01600000075995922, 0.8800000417977571, 0.0, 0.0, 0.0, 0.0, 0.0, 1.7400581358963928E9, 0.0, 2025-02-20 13:28:55.896
34.0, 417.13161150785163, 192.88534021470696, 8.695267396979034, -94.18751043407246, 0.0, -0.01600000075995922, 0.8800000417977571, 0.0, 0.0, 0.0, 0.0, 0.0, 1.7400581358964725E9, 0.0, 2025-02-20 13:28:55.896
35.0, 326.8130275779404, 100.64444770757109, 13.026071545667946, 112.30732571939006, 0.0, -0.01600000075995922, 0.8800000417977571, 0.0, 0.0, 0.0, 0.0, 0.0, 1.7400581358969572E9, 0.0, 2025-02-20 13:28:55.896
35.0, 106.76105408510193, -112.91879936214536, 14.566910327412188, 100.75851465621963, 0.0, -0.01600000075995922, 0.8800000417977571, 0.0, 0.0, 0.0, 0.0, 0.0, 1.7400581358970115E9, 0.0, 2025-02-20 13:28:55.897
36.0, 189.6634164028801, -18.217052684165537, 9.806017683818936, -110.34761814260855, 0.0, -0.01600000075995922, 0.8800000417977571, 0.0, 0.0, 0.0, 0.0, 0.0, 1.7400581359255984E9, 0.0, 2025-02-20 13:28:55.925
36.0, 420.38532446930185, 195.30879538599402, 13.800230836495757, -88.47668320173398, 0.0, -0.01600000075995922, 0.8800000417977571, 0.0, 0.0, 0.0, 0.0, 0.0, 1.740058135925716E9, 0.0, 2025-02-20 13:28:55.925
37.0, 315.0996609167196, 83.10057701542974, 13.190627143718302, 118.44076164672151, 0.0, -0.01600000075995922, 0.8800000417977571, 0.0, 0.0, 0.0, 0.0, 0.0, 1.7400581359260447E9, 0.0, 2025-02-20 13:28:55.926
37.0, 103.39140422502533, -118.19205829966813, 11.189780667424202, 100.81087325559929, 0.0, -0.01600000075995922, 0.8800000417977571, 0.0, 0.0, 0.0, 0.0, 0.0, 1.7400581359261649E9, 0.0, 2025-02-20 13:28:55.926
38.0, 201.12620976706967, -21.508164645172656, 10.83075027167797, -107.63619067473337, 0.0, -0.01600000075995922, 0.8800000417977571, 0.0, 0.0, 0.0, 0.0, 0.0, 1.7400581359551842E9, 0.0, 2025-02-20 13:28:55.955
38.0, 422.8947973395698, 189.08186195977032, 12.221993055194616, -88.16627150541171, 0.0, -0.01600000075995922, 0.8800000417977571, 0.0, 0.0, 0.0, 0.0, 0.0, 1.740058135955403E9, 0.0, 2025-02-20 13:28:55.955
39.0, 317.6427928865887, 80.82671784237027, 17.824363188818097, 118.03311255155131, 0.0, -0.01600000075995922, 0.8800000417977571, 0.0, 0.0, 0.0, 0.0, 0.0, 1.7400581359561777E9, 0.0, 2025-02-20 13:28:55.956
39.0, 108.87409756006673, -118.94003829080611, 11.036444769240916, 100.549080258701, 0.0, -0.01600000075995922, 0.8800000417977571, 0.0, 0.0, 0.0, 0.0, 0.0, 1.7400581359562893E9, 0.0, 2025-02-20 13:28:55.956
40.0, 205.10546331992373, -16.90060789976269, 9.776098484173417, -106.48430148838088, 0.0, -0.01600000075995922, 0.9280000440776348, 0.0, 0.0, 0.0, 0.0, 0.0, 1.7400581359564373E9, 0.0, 2025-02-20 13:28:55.956
40.0, 416.4733891156502, 180.62220825999975, 12.719399749301374, -83.18472476443276, 0.0, -0.01600000075995922, 0.9280000440776348, 0.0, 0.0, 0.0, 0.0, 0.0, 1.7400581359564888E9, 0.0, 2025-02-20 13:28:55.956
41.0, 311.8309883554466, 82.44235462322831, 14.716506325639784, 125.0790840680711, 0.0, -0.01600000075995922, 0.9280000440776348, 0.0, 0.0, 0.0, 0.0, 0.0, 1.7400581359571896E9, 0.0, 2025-02-20 13:28:55.957
41.0, 107.69602907402441, -114.8672872390598, 17.74582528974861, 96.52120800642297, 0.0, -0.01600000075995922, 0.9280000440776348, 0.0, 0.0, 0.0, 0.0, 0.0, 1.7400581359573777E9, 0.0, 2025-02-20 13:28:55.957
42.0, 208.65462837787345, -10.815790671855211, 5.21716043818742, -109.28548655519262, 0.0, -0.01600000075995922, 0.9280000440776348, 0.0, 0.0, 0.0, 0.0, 0.0, 1.74005813598513E9, 0.0, 2025-02-20 13:28:55.985
42.0, 411.6526580727659, 183.0082644317299, 10.355782977305353, -80.34240079810843, 0.0, -0.01600000075995922, 0.9280000440776348, 0.0, 0.0, 0.0, 0.0, 0.0, 1.7400581359851892E9, 0.0, 2025-02-20 13:28:55.985
43.0, 309.54964938247576, 78.3359444718808, 11.066363968886435, 122.36391670024022, 0.0, -0.01600000075995922, 0.9280000440776348, 0.0, 0.0, 0.0, 0.0, 0.0, 1.7400581359856455E9, 0.0, 2025-02-20 13:28:55.985
43.0, 108.27571356715634, -112.41391286812723, 12.412727952934802, 89.6921506873332, 0.0, -0.01600000075995922, 0.9280000440776348, 0.0, 0.0, 0.0, 0.0, 0.0, 1.7400581359857168E9, 0.0, 2025-02-20 13:28:55.985
44.0, 214.8666022042744, -2.449634470976889, 12.233212755061686, -112.46440151752904, 0.0, -0.01600000075995922, 0.9280000440776348, 0.0, 0.0, 0.0, 0.0, 0.0, 1.7400581360149279E9, 0.0, 2025-02-20 13:28:56.014
44.0, 414.4762825393118, 190.8732740385458, 15.954413210973144, -82.99024996673688, 0.0, -0.01600000075995922, 0.9280000440776348, 0.0, 0.0, 0.0, 0.0, 0.0, 1.7400581360150945E9, 0.0, 2025-02-20 13:28:56.015
45.0, 309.0223234887235, 81.56721803359687, 17.2671180954203, 121.05495171574876, 0.0, -0.01600000075995922, 0.9280000440776348, 0.0, 0.0, 0.0, 0.0, 0.0, 1.740058136015378E9, 0.0, 2025-02-20 13:28:56.015
45.0, 108.14855696866289, -110.04281629621983, 10.411881476640701, 93.33107334421948, 0.0, -0.01600000075995922, 0.9280000440776348, 0.0, 0.0, 0.0, 0.0, 0.0, 1.7400581360154235E9, 0.0, 2025-02-20 13:28:56.015
46.0, 215.5248245964758, -1.570757981389761, 9.701300485059619, -112.81595211336389, 0.0, -0.01600000075995922, 0.9280000440776348, 0.0, 0.0, 0.0, 0.0, 0.0, 1.7400581360162337E9, 0.0, 2025-02-20 13:28:56.016
46.0, 407.63226562039927, 183.19151952955872, 8.43721430003643, -75.54784905491397, 0.0, -0.01600000075995922, 0.9280000440776348, 0.0, 0.0, 0.0, 0.0, 0.0, 1.7400581360164363E9, 0.0, 2025-02-20 13:28:56.016
47.0, 300.7459248867817, 72.49796064104885, 13.938607134856284, 124.86590977059677, 0.0, -0.01600000075995922, 0.9280000440776348, 0.0, 0.0, 0.0, 0.0, 0.0, 1.7400581360169709E9, 0.0, 2025-02-20 13:28:56.016
47.0, 116.13698327401653, -98.42668703384697, 14.226579431444407, 90.79916107421741, 0.0, -0.01600000075995922, 0.9280000440776348, 0.0, 0.0, 0.0, 0.0, 0.0, 1.7400581360170157E9, 0.0, 2025-02-20 13:28:56.017
48.0, 224.5379834896885, 7.670534809119999, 7.9884263053536415, -114.41662929439917, 0.0, -0.01600000075995922, 0.9280000440776348, 0.0, 0.0, 0.0, 0.0, 0.0, 1.7400581360457375E9, 0.0, 2025-02-20 13:28:56.045
48.0, 409.625632296782, 185.81692929845303, 9.473166587762535, -77.03632923727855, 0.0, -0.01600000075995922, 0.9280000440776348, 0.0, 0.0, 0.0, 0.0, 0.0, 1.7400581360458567E9, 0.0, 2025-02-20 13:28:56.045
49.0, 298.99939160747454, 77.57674478087574, 13.201846843585372, 130.06811060896143, 0.0, -0.01600000075995922, 0.9280000440776348, 0.0, 0.0, 0.0, 0.0, 0.0, 1.740058136046087E9, 0.0, 2025-02-20 13:28:56.046
49.0, 113.04034611070529, -108.80864931084216, 11.623609062284231, 91.96600986039266, 0.0, -0.01600000075995922, 0.9280000440776348, 0.0, 0.0, 0.0, 0.0, 0.0, 1.7400581360461593E9, 0.0, 2025-02-20 13:28:56.046
50.0, 216.32516318699345, 10.797091172076762, 11.747025760821998, -115.90510947676376, 0.0, -0.01600000075995922, 0.9600000455975533, 0.0, 0.0, 0.0, 0.0, 0.0, 1.7400581360753365E9, 0.0, 2025-02-20 13:28:56.075
50.0, 400.93036489980295, 182.6080951364711, 14.155521332286298, -77.57861473085359, 0.0, -0.01600000075995922, 0.9600000455975533, 0.0, 0.0, 0.0, 0.0, 0.0, 1.7400581360754044E9, 0.0, 2025-02-20 13:28:56.075
51.0, 288.58377023087814, 65.07799912896007, 12.386548653244972, 124.7088339724578, 0.0, -0.01600000075995922, 0.9600000455975533, 0.0, 0.0, 0.0, 0.0, 0.0, 1.7400581360758212E9, 0.0, 2025-02-20 13:28:56.075
51.0, 116.57829146878794, -98.03025763854384, 13.082170045003295, 86.43469782592729, 0.0, -0.01600000075995922, 0.9600000455975533, 0.0, 0.0, 0.0, 0.0, 0.0, 1.7400581360759583E9, 0.0, 2025-02-20 13:28:56.075
52.0, 226.7220850638114, 9.514305487275124, 8.381115800701082, -121.94504790520296, 0.0, -0.01600000075995922, 0.9600000455975533, 0.0, 0.0, 0.0, 0.0, 0.0, 1.7400581360761435E9, 0.0, 2025-02-20 13:28:56.076
52.0, 401.7007842906751, 173.46029984485358, 6.4588072234764695, -76.14623304782435, 0.0, -0.01600000075995922, 0.9600000455975533, 0.0, 0.0, 0.0, 0.0, 0.0, 1.7400581360763326E9, 0.0, 2025-02-20 13:28:56.076
53.0, 292.98937237868086, 65.79232002049685, 15.32611001841724, 126.01405905699357, 0.0, -0.01600000075995922, 0.9600000455975533, 0.0, 0.0, 0.0, 0.0, 0.0, 1.74005813607693E9, 0.0, 2025-02-20 13:28:56.076
53.0, 126.13747575553134, -92.15113490819931, 14.342516330070794, 75.30475555779412, 0.0, -0.01600000075995922, 0.9600000455975533, 0.0, 0.0, 0.0, 0.0, 0.0, 1.7400581360769904E9, 0.0, 2025-02-20 13:28:56.076
54.0, 237.51543633593246, 18.617221979424357, 11.915321258828044, -118.26498634880409, 0.0, -0.01600000075995922, 0.9600000455975533, 0.0, 0.0, 0.0, 0.0, 0.0, 1.7400581361048927E9, 0.0, 2025-02-20 13:28:56.104
54.0, 399.60270041553304, 174.68698703031987, 10.194967279210687, -74.051889072638, 0.0, -0.01600000075995922, 0.9600000455975533, 0.0, 0.0, 0.0, 0.0, 0.0, 1.740058136105168E9, 0.0, 2025-02-20 13:28:56.105
55.0, 290.83519000420347, 61.51761437114328, 14.278938030824065, 127.1173295439221, 0.0, -0.01600000075995922, 0.9600000455975533, 0.0, 0.0, 0.0, 0.0, 0.0, 1.7400581361056087E9, 0.0, 2025-02-20 13:28:56.105
55.0, 120.2620929251425, -87.92504795826972, 11.081323568709195, 85.17435154085979, 0.0, -0.01600000075995922, 0.9600000455975533, 0.0, 0.0, 0.0, 0.0, 0.0, 1.7400581361057167E9, 0.0, 2025-02-20 13:28:56.105
56.0, 241.97713698307052, 20.49465175718069, 10.610096174292266, -120.40046922350302, 0.0, -0.01600000075995922, 0.9600000455975533, 0.0, 0.0, 0.0, 0.0, 0.0, 1.74005813613539E9, 0.0, 2025-02-20 13:28:56.135
56.0, 399.33342761872336, 173.61737564299256, 12.49874565191567, -73.55822227848694, 0.0, -0.01600000075995922, 0.9600000455975533, 0.0, 0.0, 0.0, 0.0, 0.0, 1.7400581361356964E9, 0.0, 2025-02-20 13:28:56.135
57.0, 287.2561057466082, 56.599645929411054, 13.826410136185586, 131.16764119593427, 0.0, -0.01600000075995922, 0.9600000455975533, 0.0, 0.0, 0.0, 0.0, 0.0, 1.7400581361359432E9, 0.0, 2025-02-20 13:28:56.135
57.0, 127.79799133585766, -93.64335499051958, 13.078430145047605, 90.67574437567964, 0.0, -0.01600000075995922, 0.9600000455975533, 0.0, 0.0, 0.0, 0.0, 0.0, 1.740058136136062E9, 0.0, 2025-02-20 13:28:56.136
58.0, 235.6492262580432, 19.578376268036664, 11.885402059182525, -114.78313949005678, 0.0, -0.01600000075995922, 0.9600000455975533, 0.0, 0.0, 0.0, 0.0, 0.0, 1.740058136136284E9, 0.0, 2025-02-20 13:28:56.136
58.0, 399.9505111114122, 170.0083721857518, 12.379068853333592, -67.84739504614845, 0.0, -0.01600000075995922, 0.9600000455975533, 0.0, 0.0, 0.0, 0.0, 0.0, 1.740058136136345E9, 0.0, 2025-02-20 13:28:56.136
59.0, 277.0050399680622, 51.767695186659694, 13.646894938312471, 135.83877624059096, 0.0, -0.01600000075995922, 0.9600000455975533, 0.0, 0.0, 0.0, 0.0, 0.0, 1.740058136137114E9, 0.0, 2025-02-20 13:28:56.137
59.0, 125.16884166700765, -89.27141194231808, 11.230919566936791, 87.69878401095048, 0.0, -0.01600000075995922, 0.9600000455975533, 0.0, 0.0, 0.0, 0.0, 0.0, 1.7400581361371887E9, 0.0, 2025-02-20 13:28:56.137
60.0, 244.56514775240794, 26.830042282119393, 6.716860320419073, -117.20285476138815, 0.0, -0.01600000075995922, 0.9600000455975533, 0.0, 0.0, 0.0, 0.0, 0.0, 1.7400581361653364E9, 0.0, 2025-02-20 13:28:56.165
60.0, 396.5472021517344, 163.77021905966103, 14.335036530159414, -67.18543275399134, 0.0, -0.01600000075995922, 0.9600000455975533, 0.0, 0.0, 0.0, 0.0, 0.0, 1.7400581361654482E9, 0.0, 2025-02-20 13:28:56.165
61.0, 275.6960749835707, 51.96216998435557, 12.831596747972071, 137.63018831936643, 0.0, -0.01600000075995922, 0.9600000455975533, 0.0, 0.0, 0.0, 0.0, 0.0, 1.740058136165573E9, 0.0, 2025-02-20 13:28:56.165
61.0, 126.189834354911, -91.06656392104924, 9.817237383686006, 81.1689186883159, 0.0, -0.01600000075995922, 0.9600000455975533, 0.0, 0.0, 0.0, 0.0, 0.0, 1.7400581361656363E9, 0.0, 2025-02-20 13:28:56.165
62.0, 239.00765641825274, 23.243478224612772, 7.921108106151223, -128.46743342792615, 0.0, -0.01600000075995922, 0.9600000455975533, 0.0, 0.0, 0.0, 0.0, 0.0, 1.740058136195114E9, 0.0, 2025-02-20 13:28:56.195
62.0, 386.0193837764673, 157.45726793445647, 13.28786454256624, -72.6082876897417, 0.0, -0.01600000075995922, 0.9600000455975533, 0.0, 0.0, 0.0, 0.0, 0.0, 1.7400581361952543E9, 0.0, 2025-02-20 13:28:56.195
63.0, 275.2884258884005, 43.82788758073002, 12.319230454042554, 130.01201210962608, 0.0, -0.01600000075995922, 0.9600000455975533, 0.0, 0.0, 0.0, 0.0, 0.0, 1.7400581361953657E9, 0.0, 2025-02-20 13:28:56.195
63.0, 127.47635993966833, -86.75819917209446, 11.68344746157527, 76.96527113812044, 0.0, -0.01600000075995922, 0.9600000455975533, 0.0, 0.0, 0.0, 0.0, 0.0, 1.7400581361954503E9, 0.0, 2025-02-20 13:28:56.195
64.0, 236.64403964625672, 35.15505958348513, 8.339976901188493, -124.95566736953333, 0.0, -0.01600000075995922, 0.9600000455975533, 0.0, 0.0, 0.0, 0.0, 0.0, 1.7400581361960778E9, 0.0, 2025-02-20 13:28:56.196
64.0, 390.3950667246245, 156.75042684283108, 13.351442841812968, -70.76825691154227, 0.0, -0.01600000075995922, 0.9600000455975533, 0.0, 0.0, 0.0, 0.0, 0.0, 1.7400581361961477E9, 0.0, 2025-02-20 13:28:56.196
65.0, 267.7113885781728, 40.63401301857084, 11.126202368177474, 132.4878258802928, 0.0, -0.01600000075995922, 0.9600000455975533, 0.0, 0.0, 0.0, 0.0, 0.0, 1.7400581361975577E9, 0.0, 2025-02-20 13:28:56.197
65.0, 123.18295479053631, -87.34162356518209, 15.7113197138533, 76.26216994645074, 0.0, -0.01600000075995922, 0.9600000455975533, 0.0, 0.0, 0.0, 0.0, 0.0, 1.7400581361978989E9, 0.0, 2025-02-20 13:28:56.197
66.0, 251.82803346635774, 34.766109988093376, 6.694420920684934, -123.17921489058062, 0.0, -0.01600000075995922, 0.9600000455975533, 0.0, 0.0, 0.0, 0.0, 0.0, 1.7400581362254708E9, 0.0, 2025-02-20 13:28:56.225
66.0, 388.5288566467352, 159.42819521110505, 12.121015756390989, -63.6774065955542, 0.0, -0.01600000075995922, 0.9600000455975533, 0.0, 0.0, 0.0, 0.0, 0.0, 1.74005813622557E9, 0.0, 2025-02-20 13:28:56.225
67.0, 263.05521313333884, 38.057221949100494, 14.551950727589428, 141.0821159784682, 0.0, -0.01600000075995922, 0.9600000455975533, 0.0, 0.0, 0.0, 0.0, 0.0, 1.7400581362258024E9, 0.0, 2025-02-20 13:28:56.225
67.0, 133.39288166956976, -84.62271629739553, 11.631088862195611, 86.24770282814279, 0.0, -0.01600000075995922, 0.9600000455975533, 0.0, 0.0, 0.0, 0.0, 0.0, 1.7400581362258575E9, 0.0, 2025-02-20 13:28:56.225
68.0, 254.55816043401137, 35.630026877857745, 6.238153126090765, -121.28308561304584, 0.0, -0.01600000075995922, 0.9600000455975533, 0.0, 0.0, 0.0, 0.0, 0.0, 1.7400581362550485E9, 0.0, 2025-02-20 13:28:56.255
68.0, 377.02866428298876, 152.34108479507267, 10.47919967584312, -60.356375434901565, 0.0, -0.01600000075995922, 0.9600000455975533, 0.0, 0.0, 0.0, 0.0, 0.0, 1.740058136255129E9, 0.0, 2025-02-20 13:28:56.255
69.0, 259.46116927592084, 35.54774907883257, 14.86610232386738, 145.71211212361231, 0.0, -0.01600000075995922, 0.9600000455975533, 0.0, 0.0, 0.0, 0.0, 0.0, 1.740058136255291E9, 0.0, 2025-02-20 13:28:56.255
69.0, 135.86869544023648, -81.06233153957874, 10.180007679387927, 82.32080787466839, 0.0, -0.01600000075995922, 0.9600000455975533, 0.0, 0.0, 0.0, 0.0, 0.0, 1.7400581362553425E9, 0.0, 2025-02-20 13:28:56.255
70.0, 256.2074563144706, 36.98761056177318, 10.520338575355709, -114.46150809386745, 0.0, -0.01600000075995922, 0.9760000463575125, 0.0, 0.0, 0.0, 0.0, 0.0, 1.7400581362561576E9, 0.0, 2025-02-20 13:28:56.256
70.0, 380.47311214217916, 146.4769216645509, 11.990119257941842, -50.21376675507054, 0.0, -0.01600000075995922, 0.9760000463575125, 0.0, 0.0, 0.0, 0.0, 0.0, 1.740058136256219E9, 0.0, 2025-02-20 13:28:56.256
71.0, 244.41555175418034, 28.55039626173675, 15.935713711194694, 153.10215443605557, 0.0, -0.01600000075995922, 0.9760000463575125, 0.0, 0.0, 0.0, 0.0, 0.0, 1.7400581362856133E9, 0.0, 2025-02-20 13:28:56.285
71.0, 134.6382683548145, -81.55225843377411, 9.877075782977045, 88.48416300164536, 0.0, -0.01600000075995922, 0.9760000463575125, 0.0, 0.0, 0.0, 0.0, 0.0, 1.7400581362857776E9, 0.0, 2025-02-20 13:28:56.285
72.0, 253.36887224810198, 38.26665634661913, 9.27869179006666, -113.95662159984931, 0.0, -0.01600000075995922, 0.9760000463575125, 0.0, 0.0, 0.0, 0.0, 0.0, 1.740058136286515E9, 0.0, 2025-02-20 13:28:56.286
72.0, 373.7824311214499, 150.80024601332843, 13.115829144604504, -46.51500569889322, 0.0, -0.01600000075995922, 0.9760000463575125, 0.0, 0.0, 0.0, 0.0, 0.0, 1.7400581362866364E9, 0.0, 2025-02-20 13:28:56.286
73.0, 252.246902261395, 26.078322391025722, 16.44434010516852, 141.20553267700598, 0.0, -0.01600000075995922, 0.9760000463575125, 0.0, 0.0, 0.0, 0.0, 0.0, 1.74005813628684E9, 0.0, 2025-02-20 13:28:56.286
73.0, 145.9065869213082, -74.19587522093207, 8.373636000789702, 68.93570593325421, 0.0, -0.01600000075995922, 0.9760000463575125, 0.0, 0.0, 0.0, 0.0, 0.0, 1.7400581362868967E9, 0.0, 2025-02-20 13:28:56.286
74.0, 261.6527506499551, 47.642585535533726, 12.569803751073778, -128.05230453284457, 0.0, -0.01600000075995922, 0.9760000463575125, 0.0, 0.0, 0.0, 0.0, 0.0, 1.7400581362873695E9, 0.0, 2025-02-20 13:28:56.287
74.0, 378.36006866721436, 146.95188895892352, 15.69636011403054, -54.91482099937275, 0.0, -0.01600000075995922, 0.9760000463575125, 0.0, 0.0, 0.0, 0.0, 0.0, 1.7400581362874792E9, 0.0, 2025-02-20 13:28:56.287
75.0, 254.03457444021478, 25.094728702679276, 11.881662159226835, 138.53524410864338, 0.0, -0.01600000075995922, 0.9760000463575125, 0.0, 0.0, 0.0, 0.0, 0.0, 1.7400581363151264E9, 0.0, 2025-02-20 13:28:56.315
75.0, 142.04327026708052, -69.04229308199137, 12.45386685244739, 70.06141581991687, 0.0, -0.01600000075995922, 0.9760000463575125, 0.0, 0.0, 0.0, 0.0, 0.0, 1.7400581363152995E9, 0.0, 2025-02-20 13:28:56.315
76.0, 273.7475871066563, 50.903778296895325, 7.221746814437211, -134.43257385725155, 0.0, -0.01600000075995922, 0.9760000463575125, 0.0, 0.0, 0.0, 0.0, 0.0, 1.740058136315689E9, 0.0, 2025-02-20 13:28:56.315
76.0, 378.4535661661066, 146.813512660563, 16.294744106940925, -62.28990371199325, 0.0, -0.01600000075995922, 0.9760000463575125, 0.0, 0.0, 0.0, 0.0, 0.0, 1.7400581363157365E9, 0.0, 2025-02-20 13:28:56.315
77.0, 246.20322393300012, 22.9742054278031, 13.620715638622642, 134.0810232614167, 0.0, -0.01600000075995922, 0.9760000463575125, 0.0, 0.0, 0.0, 0.0, 0.0, 1.740058136345108E9, 0.0, 2025-02-20 13:28:56.345
77.0, 150.4655249672942, -69.70425537414849, 10.381962276995182, 66.99469785625115, 0.0, -0.01600000075995922, 0.9760000463575125, 0.0, 0.0, 0.0, 0.0, 0.0, 1.740058136345183E9, 0.0, 2025-02-20 13:28:56.345
78.0, 275.6399764842354, 56.143378134816885, 13.26168524287641, -139.70583279477432, 0.0, -0.01600000075995922, 0.9760000463575125, 0.0, 0.0, 0.0, 0.0, 0.0, 1.7400581363454468E9, 0.0, 2025-02-20 13:28:56.345
78.0, 364.1521887355484, 139.08313945215195, 13.71795303747058, -62.349742111284286, 0.0, -0.01600000075995922, 0.9760000463575125, 0.0, 0.0, 0.0, 0.0, 0.0, 1.7400581363455827E9, 0.0, 2025-02-20 13:28:56.345
79.0, 240.77662909729406, 14.596829527057707, 15.389688317663968, 141.21301247691736, 0.0, -0.01600000075995922, 0.9760000463575125, 0.0, 0.0, 0.0, 0.0, 0.0, 1.7400581363460464E9, 0.0, 2025-02-20 13:28:56.346
79.0, 155.48073080787435, -54.87181214988232, 10.83075027167797, 57.07648317376152, 0.0, -0.01600000075995922, 0.9760000463575125, 0.0, 0.0, 0.0, 0.0, 0.0, 1.7400581363461723E9, 0.0, 2025-02-20 13:28:56.346
80.0, 282.36057670461014, 57.59071941766888, 10.546517875045538, -138.10889551369473, 0.0, -0.01600000075995922, 0.9920000471174717, 0.0, 0.0, 0.0, 0.0, 0.0, 1.7400581363471265E9, 0.0, 2025-02-20 13:28:56.347
80.0, 368.9355207788758, 136.11365888733417, 14.215359731577337, -59.7879106416367, 0.0, -0.01600000075995922, 0.9920000471174717, 0.0, 0.0, 0.0, 0.0, 0.0, 1.7400581363471885E9, 0.0, 2025-02-20 13:28:56.347
81.0, 236.41216584900394, 14.802524024620652, 15.486925716511905, 141.13073467789218, 0.0, -0.01600000075995922, 0.9920000471174717, 0.0, 0.0, 0.0, 0.0, 0.0, 1.740058136375002E9, 0.0, 2025-02-20 13:28:56.375
81.0, 150.52910326654091, -60.42930348403752, 10.0416313810274, 63.49789139768109, 0.0, -0.01600000075995922, 0.9920000471174717, 0.0, 0.0, 0.0, 0.0, 0.0, 1.7400581363751378E9, 0.0, 2025-02-20 13:28:56.375
82.0, 274.32353169983253, 69.22554817982018, 11.750765660777688, -136.07065003784373, 0.0, -0.01600000075995922, 0.9920000471174717, 0.0, 0.0, 0.0, 0.0, 0.0, 1.740058136375553E9, 0.0, 2025-02-20 13:28:56.375
82.0, 364.47008023178205, 139.92461694218218, 12.150934956036508, -54.81758360052481, 0.0, -0.01600000075995922, 0.9920000471174717, 0.0, 0.0, 0.0, 0.0, 0.0, 1.7400581363756444E9, 0.0, 2025-02-20 13:28:56.375
83.0, 231.3894802085124, 10.909288170747459, 8.579330498352647, 143.7187454472296, 0.0, -0.01600000075995922, 0.9920000471174717, 0.0, 0.0, 0.0, 0.0, 0.0, 1.7400581364050007E9, 0.0, 2025-02-20 13:28:56.405
83.0, 151.69221215276048, -60.06279328837991, 10.239846078678966, 62.88828770490363, 0.0, -0.01600000075995922, 0.9920000471174717, 0.0, 0.0, 0.0, 0.0, 0.0, 1.7400581364051309E9, 0.0, 2025-02-20 13:28:56.405
84.0, 283.460107291583, 61.88786446675658, 4.790811843238771, -133.37044226983562, 0.0, -0.01600000075995922, 0.9920000471174717, 0.0, 0.0, 0.0, 0.0, 0.0, 1.7400581364058163E9, 0.0, 2025-02-20 13:28:56.405
84.0, 361.8110113632865, 134.27736800909042, 11.552550963126123, -52.59234312688932, 0.0, -0.01600000075995922, 0.9920000471174717, 0.0, 0.0, 0.0, 0.0, 0.0, 1.7400581364058845E9, 0.0, 2025-02-20 13:28:56.405
85.0, 231.00801041303203, 5.194721038453281, 10.954166970215738, 150.24487086990848, 0.0, -0.01600000075995922, 0.9920000471174717, 0.0, 0.0, 0.0, 0.0, 0.0, 1.7400581364061377E9, 0.0, 2025-02-20 13:28:56.406
85.0, 165.82529408531263, -50.896298496983945, 14.260238531045616, 62.88454780494794, 0.0, -0.01600000075995922, 0.9920000471174717, 0.0, 0.0, 0.0, 0.0, 0.0, 1.7400581364063904E9, 0.0, 2025-02-20 13:28:56.406
86.0, 289.65712151816115, 79.64116955641657, 9.417068088427186, -132.0053787860088, 0.0, -0.01600000075995922, 0.9920000471174717, 0.0, 0.0, 0.0, 0.0, 0.0, 1.7400581364071703E9, 0.0, 2025-02-20 13:28:56.407
86.0, 353.45981476223096, 136.031381088309, 10.385702176950872, -46.81045779539272, 0.0, -0.01600000075995922, 0.9920000471174717, 0.0, 0.0, 0.0, 0.0, 0.0, 1.7400581364072373E9, 0.0, 2025-02-20 13:28:56.407
87.0, 229.29887613328174, -5.265779137611389, 12.629642150364816, 150.7908962634392, 0.0, -0.01600000075995922, 0.9920000471174717, 0.0, 0.0, 0.0, 0.0, 0.0, 1.7400581364350104E9, 0.0, 2025-02-20 13:28:56.435
87.0, 162.18263152847067, -56.928757125511765, 12.667041149921715, 61.10809532599524, 0.0, -0.01600000075995922, 0.9920000471174717, 0.0, 0.0, 0.0, 0.0, 0.0, 1.7400581364350913E9, 0.0, 2025-02-20 13:28:56.435
88.0, 290.4462404088117, 72.94300873577595, 10.88310887105763, -134.44005365716293, 0.0, -0.01600000075995922, 0.9920000471174717, 0.0, 0.0, 0.0, 0.0, 0.0, 1.740058136435578E9, 0.0, 2025-02-20 13:28:56.435
88.0, 348.1379371252842, 118.41645229700953, 7.835090407170355, -51.18240084359422, 0.0, -0.01600000075995922, 0.9920000471174717, 0.0, 0.0, 0.0, 0.0, 0.0, 1.7400581364356415E9, 0.0, 2025-02-20 13:28:56.435
89.0, 222.3090031160973, 0.6283031925559044, 14.45471332874149, 154.17176582338288, 0.0, -0.01600000075995922, 0.9920000471174717, 0.0, 0.0, 0.0, 0.0, 0.0, 1.7400581364656177E9, 0.0, 2025-02-20 13:28:56.465
89.0, 165.989849683363, -40.96312421467155, 7.24044631421566, 59.4550595455803, 0.0, -0.01600000075995922, 0.9920000471174717, 0.0, 0.0, 0.0, 0.0, 0.0, 1.7400581364658217E9, 0.0, 2025-02-20 13:28:56.465
90.0, 289.1634547240101, 84.57035769801587, 6.944994217716157, -134.0810232614167, 0.0, -0.01600000075995922, 0.9920000471174717, 0.0, 0.0, 0.0, 0.0, 0.0, 1.740058136465874E9, 0.0, 2025-02-20 13:28:56.465
90.0, 355.38586323941126, 125.67185821104795, 16.53035780414939, -48.88236237084493, 0.0, -0.01600000075995922, 0.9920000471174717, 0.0, 0.0, 0.0, 0.0, 0.0, 1.740058136465914E9, 0.0, 2025-02-20 13:28:56.465
91.0, 217.6378680714406, 2.569311269558966, 9.850896483287215, 144.85193513380364, 0.0, -0.01600000075995922, 0.9920000471174717, 0.0, 0.0, 0.0, 0.0, 0.0, 1.7400581364661305E9, 0.0, 2025-02-20 13:28:56.466
91.0, 172.25792200909927, -37.36908035725355, 13.097129644826055, 52.81299722427502, 0.0, -0.01600000075995922, 0.9920000471174717, 0.0, 0.0, 0.0, 0.0, 0.0, 1.7400581364661973E9, 0.0, 2025-02-20 13:28:56.466
92.0, 300.0203842953779, 79.76832615491003, 12.016298557631671, -136.01455153850839, 0.0, -0.01600000075995922, 0.9920000471174717, 0.0, 0.0, 0.0, 0.0, 0.0, 1.7400581364673584E9, 0.0, 2025-02-20 13:28:56.467
92.0, 354.54438574938104, 123.88418603222817, 12.04995765723288, -44.88814921816811, 0.0, -0.01600000075995922, 0.9920000471174717, 0.0, 0.0, 0.0, 0.0, 0.0, 1.7400581364674757E9, 0.0, 2025-02-20 13:28:56.467
93.0, 228.80894923908636, 4.43178144749254, 10.411881476640701, 149.46697167912498, 0.0, -0.01600000075995922, 0.9920000471174717, 0.0, 0.0, 0.0, 0.0, 0.0, 1.740058136495147E9, 0.0, 2025-02-20 13:28:56.495
93.0, 168.95933024818078, -42.79567519295961, 12.741839149035513, 57.592589367646724, 0.0, -0.01600000075995922, 0.9920000471174717, 0.0, 0.0, 0.0, 0.0, 0.0, 1.7400581364952362E9, 0.0, 2025-02-20 13:28:56.495
94.0, 298.3374293153174, 86.81429767142981, 11.167341267690063, -136.597975931596, 0.0, -0.01600000075995922, 0.9920000471174717, 0.0, 0.0, 0.0, 0.0, 0.0, 1.740058136495792E9, 0.0, 2025-02-20 13:28:56.495
94.0, 349.3646243107505, 118.35661389771849, 14.391135029494762, -50.50921885157004, 0.0, -0.01600000075995922, 0.9920000471174717, 0.0, 0.0, 0.0, 0.0, 0.0, 1.740058136495864E9, 0.0, 2025-02-20 13:28:56.495
95.0, 212.88819512771443, -15.068056921474636, 13.620715638622642, 153.50980353122577, 0.0, -0.01600000075995922, 0.9920000471174717, 0.0, 0.0, 0.0, 0.0, 0.0, 1.7400581365258365E9, 0.0, 2025-02-20 13:28:56.525
95.0, 174.59535948140547, -41.10524041298777, 14.593089627102017, 56.00313188647851, 0.0, -0.01600000075995922, 0.9920000471174717, 0.0, 0.0, 0.0, 0.0, 0.0, 1.740058136525947E9, 0.0, 2025-02-20 13:28:56.525
96.0, 301.9352130726911, 82.50219302251935, 8.792504795826972, -138.49784510908648, 0.0, -0.01600000075995922, 0.9920000471174717, 0.0, 0.0, 0.0, 0.0, 0.0, 1.7400581365262704E9, 0.0, 2025-02-20 13:28:56.526
96.0, 339.951296122279, 110.25599059369415, 17.031504398211837, -43.078037639614195, 0.0, -0.01600000075995922, 0.9920000471174717, 0.0, 0.0, 0.0, 0.0, 0.0, 1.740058136526359E9, 0.0, 2025-02-20 13:28:56.526
97.0, 212.74233902944252, -13.429980740882456, 11.926540958695114, 151.99514404917136, 0.0, -0.01600000075995922, 0.9920000471174717, 0.0, 0.0, 0.0, 0.0, 0.0, 1.7400581365265017E9, 0.0, 2025-02-20 13:28:56.526
97.0, 184.74918786110356, -33.591781402006745, 11.993859157897532, 54.327656706329435, 0.0, -0.01600000075995922, 0.9920000471174717, 0.0, 0.0, 0.0, 0.0, 0.0, 1.740058136526575E9, 0.0, 2025-02-20 13:28:56.526
98.0, 302.2044858695008, 95.92469396349043, 9.028118493035436, -141.0521967788227, 0.0, -0.01600000075995922, 0.9920000471174717, 0.0, 0.0, 0.0, 0.0, 0.0, 1.7400581365268896E9, 0.0, 2025-02-20 13:28:56.526
98.0, 334.04973399220034, 104.39930726308376, 13.725432837381959, -37.93193530058488, 0.0, -0.01600000075995922, 0.9920000471174717, 0.0, 0.0, 0.0, 0.0, 0.0, 1.7400581365269458E9, 0.0, 2025-02-20 13:28:56.526
99.0, 202.64460914907977, -17.158660996705294, 13.201846843585372, 154.41485932050273, 0.0, -0.01600000075995922, 0.9920000471174717, 0.0, 0.0, 0.0, 0.0, 0.0, 1.7400581365550709E9, 0.0, 2025-02-20 13:28:56.555
99.0, 183.33924557780847, -29.709765248000622, 9.884555582888424, 58.65472095506266, 0.0, -0.01600000075995922, 0.9920000471174717, 0.0, 0.0, 0.0, 0.0, 0.0, 1.7400581365551507E9, 0.0, 2025-02-20 13:28:56.555
100.0, 317.44831808889285, 92.28577130660415, 9.6713812854141, -144.65372043615207, 0.0, -0.01600000075995922, 0.9920000471174717, 0.0, 0.0, 0.0, 0.0, 0.0, 1.7400581365553813E9, 0.0, 2025-02-20 13:28:56.555
100.0, 339.5586066269316, 110.04281629621983, 15.430827217176557, -40.17587527399883, 0.0, -0.01600000075995922, 0.9920000471174717, 0.0, 0.0, 0.0, 0.0, 0.0, 1.7400581365557745E9, 0.0, 2025-02-20 13:28:56.555
0.0, -285.80502456380054, -503.67663638247177, 11.28327816631645, 153.50606363127008, 0.0, -0.01600000075995922, 0.9920000471174717, 0.0, 0.0, 0.0, 0.0, 0.0, 1.74005813655643E9, 0.0, 2025-02-20 13:28:56.556
1.0, -312.5827082465403, -517.7386602158658, 9.839676783420146, 48.5981299742125, 0.0, 0.0, 0.9920000471174717, 0.0, 0.0, 0.0, 0.0, 0.0, 1.740058136585549E9, 0.0, 2025-02-20 13:28:56.585
1.0, -176.52140795858577, -389.0449628406204, 8.87852249480784, -138.5988224078901, 0.0, 0.0, 0.9920000471174717, 0.0, 0.0, 0.0, 0.0, 0.0, 1.740058136585595E9, 0.0, 2025-02-20 13:28:56.585
2.0, -153.82395512750372, -383.17705981014296, 9.159014991484582, -37.89453630102798, 0.0, 0.0, 0.9920000471174717, 0.0, 0.0, 0.0, 0.0, 0.0, 1.74005813658598E9, 0.0, 2025-02-20 13:28:56.585
2.0, -293.0080718784593, -513.4078560671769, 11.040184669196606, 154.47095781983808, 0.0, 0.0, 0.9920000471174717, 0.0, 0.0, 0.0, 0.0, 0.0, 1.7400581365861535E9, 0.0, 2025-02-20 13:28:56.586
3.0, -311.14658666355535, -515.9809072366916, 14.013405133970082, 47.31160438945517, 0.0, 0.0, 0.9920000471174717, 0.0, 0.0, 0.0, 0.0, 0.0, 1.740058136586309E9, 0.0, 2025-02-20 13:28:56.586
3.0, -176.3194533609785, -383.4575523068197, 8.87104269489646, -147.23051150562242, 0.0, 0.0, 0.9920000471174717, 0.0, 0.0, 0.0, 0.0, 0.0, 1.7400581365863757E9, 0.0, 2025-02-20 13:28:56.586
4.0, -166.26660228008404, -381.8942741253413, 13.579576739110053, -39.74578677909449, 0.0, 0.0, 0.9920000471174717, 0.0, 0.0, 0.0, 0.0, 0.0, 1.7400581366154375E9, 0.0, 2025-02-20 13:28:56.615
4.0, -300.0577832949348, -513.37045706762, 15.490665616467595, 153.43500553211197, 0.0, 0.0, 0.9920000471174717, 0.0, 0.0, 0.0, 0.0, 0.0, 1.740058136615632E9, 0.0, 2025-02-20 13:28:56.615
5.0, -295.798037245404, -501.57481260737404, 12.128495556302369, 44.667495120782405, 0.0, 0.0, 0.9920000471174717, 0.0, 0.0, 0.0, 0.0, 0.0, 1.7400581366159325E9, 0.0, 2025-02-20 13:28:56.615
5.0, -166.86872617295012, -379.4558593542315, 8.194120802916586, -145.85422832192853, 0.0, 0.0, 0.9920000471174717, 0.0, 0.0, 0.0, 0.0, 0.0, 1.740058136616198E9, 0.0, 2025-02-20 13:28:56.616
6.0, -165.33536719111726, -388.8766673426144, 10.767171972431242, -39.56253168126568, 0.0, 0.0, 0.9920000471174717, 0.0, 0.0, 0.0, 0.0, 0.0, 1.7400581366164155E9, 0.0, 2025-02-20 13:28:56.616
6.0, -292.9033546797, -519.6160899936222, 16.679953802376986, 160.2079643518664, 0.0, 0.0, 0.9920000471174717, 0.0, 0.0, 0.0, 0.0, 0.0, 1.7400581366164763E9, 0.0, 2025-02-20 13:28:56.616
7.0, -294.87802185630426, -497.5544201550074, 11.65352826192975, 48.51585217518732, 0.0, 0.0, 0.9920000471174717, 0.0, 0.0, 0.0, 0.0, 0.0, 1.7400581366451178E9, 0.0, 2025-02-20 13:28:56.645
7.0, -161.92083853157237, -378.3376292674802, 10.740992672741413, -142.21904556499794, 0.0, 0.0, 0.9920000471174717, 0.0, 0.0, 0.0, 0.0, 0.0, 1.740058136645383E9, 0.0, 2025-02-20 13:28:56.645
8.0, -172.73662920342758, -398.33861423050985, 9.63772218581289, -32.583878363948315, 0.0, 0.0, 0.9920000471174717, 0.0, 0.0, 0.0, 0.0, 0.0, 1.740058136645462E9, 0.0, 2025-02-20 13:28:56.645
8.0, -298.7076794109307, -520.3266709852032, 11.440353964455426, 158.54744877154008, 0.0, 0.0, 0.9920000471174717, 0.0, 0.0, 0.0, 0.0, 0.0, 1.7400581366455529E9, 0.0, 2025-02-20 13:28:56.645
9.0, -294.1487413649447, -502.61076489510015, 11.709626761265099, 48.78512497199699, 0.0, 0.0, 0.9920000471174717, 0.0, 0.0, 0.0, 0.0, 0.0, 1.7400581366465397E9, 0.0, 2025-02-20 13:28:56.646
9.0, -166.89116557268426, -380.9779986361973, 10.808310871943831, -147.55962270172313, 0.0, 0.0, 0.9920000471174717, 0.0, 0.0, 0.0, 0.0, 0.0, 1.7400581366465926E9, 0.0, 2025-02-20 13:28:56.646
10.0, -174.70381658012047, -397.99828333454207, 12.09483645670116, -27.93518271902576, 0.0, 0.0, 0.9920000471174717, 0.0, 0.0, 0.0, 0.0, 0.0, 1.740058136675207E9, 0.0, 2025-02-20 13:28:56.675
10.0, -295.6073023476638, -520.4949664832093, 13.598276238888502, 160.06584815355018, 0.0, 0.0, 0.9920000471174717, 0.0, 0.0, 0.0, 0.0, 0.0, 1.7400581366753488E9, 0.0, 2025-02-20 13:28:56.675
11.0, -290.9773062025197, -502.43124969722703, 11.208480167202652, 46.56362439831719, 0.0, -0.01600000075995922, 0.9920000471174717, 0.0, 0.0, 0.0, 0.0, 0.0, 1.7400581366755385E9, 0.0, 2025-02-20 13:28:56.675
11.0, -158.63720637047663, -373.84600942069665, 13.923647535033524, -145.30446302844211, 0.0, -0.01600000075995922, 0.9920000471174717, 0.0, 0.0, 0.0, 0.0, 0.0, 1.7400581366756206E9, 0.0, 2025-02-20 13:28:56.675
12.0, -174.78983427910134, -399.9579909113236, 12.150934956036508, -27.867864519823343, 0.0, -0.01600000075995922, 0.9920000471174717, 0.0, 0.0, 0.0, 0.0, 0.0, 1.7400581366763823E9, 0.0, 2025-02-20 13:28:56.676
12.0, -314.4264789246954, -534.3176367194392, 13.736652537249029, 160.58569424739107, 0.0, -0.01600000075995922, 0.9920000471174717, 0.0, 0.0, 0.0, 0.0, 0.0, 1.740058136676571E9, 0.0, 2025-02-20 13:28:56.676
13.0, -291.47845279658213, -506.61245784768835, 8.964540193788707, 45.25465941382572, 0.0, -0.01600000075995922, 0.9920000471174717, 0.0, 0.0, 0.0, 0.0, 0.0, 1.740058136705312E9, 0.0, 2025-02-20 13:28:56.705
13.0, -157.39555958518758, -373.8609690205194, 10.8569295713678, -150.80211596330628, 0.0, -0.01600000075995922, 0.9920000471174717, 0.0, 0.0, 0.0, 0.0, 0.0, 1.740058136705407E9, 0.0, 2025-02-20 13:28:56.705
14.0, -181.86198509531096, -407.7706419187598, 11.574990362860262, -29.98090799478814, 0.0, -0.01600000075995922, 0.9920000471174717, 0.0, 0.0, 0.0, 0.0, 0.0, 1.7400581367056305E9, 0.0, 2025-02-20 13:28:56.705
14.0, -313.8430545316078, -529.6689410745166, 15.763678313232958, 159.11591356480494, 0.0, -0.01600000075995922, 0.9920000471174717, 0.0, 0.0, 0.0, 0.0, 0.0, 1.740058136705701E9, 0.0, 2025-02-20 13:28:56.705
15.0, -288.54637123132125, -495.90886417450383, 12.89891494717449, 40.265632872935385, 0.0, -0.01600000075995922, 0.9920000471174717, 0.0, 0.0, 0.0, 0.0, 0.0, 1.7400581367062747E9, 0.0, 2025-02-20 13:28:56.706
15.0, -157.33198128594086, -371.9797993428074, 8.82242399547249, -155.7612233045511, 0.0, -0.01600000075995922, 0.9920000471174717, 0.0, 0.0, 0.0, 0.0, 0.0, 1.740058136706535E9, 0.0, 2025-02-20 13:28:56.706
16.0, -183.28314707847312, -405.97548994002864, 13.385101941414177, -30.104324693325907, 0.0, -0.01600000075995922, 0.9920000471174717, 0.0, 0.0, 0.0, 0.0, 0.0, 1.7400581367353823E9, 0.0, 2025-02-20 13:28:56.735
16.0, -310.7314577684738, -531.7034466504119, 12.034998057410121, 157.30580198625103, 0.0, -0.01600000075995922, 0.9920000471174717, 0.0, 0.0, 0.0, 0.0, 0.0, 1.7400581367355473E9, 0.0, 2025-02-20 13:28:56.735
17.0, -279.86980333412066, -480.96422395156696, 7.087110416032374, 32.46794146532193, 0.0, -0.01600000075995922, 0.9920000471174717, 0.0, 0.0, 0.0, 0.0, 0.0, 1.7400581367359045E9, 0.0, 2025-02-20 13:28:56.735
17.0, -148.69281238829717, -362.1812614588998, 9.66390148550272, -155.19649841124192, 0.0, -0.01600000075995922, 0.9920000471174717, 0.0, 0.0, 0.0, 0.0, 0.0, 1.740058136735996E9, 0.0, 2025-02-20 13:28:56.735
18.0, -191.33889158302918, -417.45698280399665, 15.70757981389761, -27.11988452868536, 0.0, -0.01600000075995922, 0.9920000471174717, 0.0, 0.0, 0.0, 0.0, 0.0, 1.7400581367364702E9, 0.0, 2025-02-20 13:28:56.736
18.0, -312.7622234444134, -527.5371980997734, 12.996152346022427, 156.52790279546753, 0.0, -0.01600000075995922, 0.9920000471174717, 0.0, 0.0, 0.0, 0.0, 0.0, 1.740058136736695E9, 0.0, 2025-02-20 13:28:56.736
19.0, -276.32063827617094, -494.68217698903754, 13.68803383782506, 36.15548282163218, 0.0, -0.01600000075995922, 0.9920000471174717, 0.0, 0.0, 0.0, 0.0, 0.0, 1.7400581367650578E9, 0.0, 2025-02-20 13:28:56.765
19.0, -149.35851458040997, -368.4942125841044, 7.401262012310326, -155.44707170827314, 0.0, -0.01600000075995922, 0.9920000471174717, 0.0, 0.0, 0.0, 0.0, 0.0, 1.7400581367651572E9, 0.0, 2025-02-20 13:28:56.765
20.0, -189.71203510230407, -418.39195779291913, 12.240692554973066, -31.428249277640134, 0.0, -0.01600000075995922, 1.008000047877431, 0.0, 0.0, 0.0, 0.0, 0.0, 1.740058136765313E9, 0.0, 2025-02-20 13:28:56.765
20.0, -318.3458940782584, -543.0764824156649, 16.650034602731466, 157.52271618368104, 0.0, -0.01600000075995922, 1.008000047877431, 0.0, 0.0, 0.0, 0.0, 0.0, 1.7400581367653897E9, 0.0, 2025-02-20 13:28:56.765
21.0, -278.53839894989505, -489.68193074828014, 9.465686787851155, 42.07200455153361, 0.0, -0.01600000075995922, 1.008000047877431, 0.0, 0.0, 0.0, 0.0, 0.0, 1.740058136766657E9, 0.0, 2025-02-20 13:28:56.766
21.0, -155.4582914081402, -365.5247320192866, 6.9412543177604675, -148.85736798634753, 0.0, -0.01600000075995922, 1.008000047877431, 0.0, 0.0, 0.0, 0.0, 0.0, 1.740058136766802E9, 0.0, 2025-02-20 13:28:56.766
22.0, -191.30897238338366, -417.41584390448406, 12.719399749301374, -25.724901845213026, 0.0, -0.01600000075995922, 1.008000047877431, 0.0, 0.0, 0.0, 0.0, 0.0, 1.7400581367952912E9, 0.0, 2025-02-20 13:28:56.795
22.0, -325.0253553991206, -545.9262861819007, 12.121015756390989, 163.62623291136697, 0.0, -0.01600000075995922, 1.008000047877431, 0.0, 0.0, 0.0, 0.0, 0.0, 1.7400581367953992E9, 0.0, 2025-02-20 13:28:56.795
23.0, -276.1224235785194, -485.55682109715417, 12.715659849345684, 39.17358208587393, 0.0, -0.01600000075995922, 1.008000047877431, 0.0, 0.0, 0.0, 0.0, 0.0, 1.7400581367956908E9, 0.0, 2025-02-20 13:28:56.795
23.0, -143.32979585183784, -355.75611333502457, 7.977206605486572, -147.80645609879866, 0.0, -0.01600000075995922, 1.008000047877431, 0.0, 0.0, 0.0, 0.0, 0.0, 1.7400581367957487E9, 0.0, 2025-02-20 13:28:56.795
24.0, -197.6630624081008, -425.5538662080653, 12.50622545182705, -26.8094728323631, 0.0, -0.01600000075995922, 1.008000047877431, 0.0, 0.0, 0.0, 0.0, 0.0, 1.740058136796178E9, 0.0, 2025-02-20 13:28:56.796
24.0, -327.287994872313, -548.5703954505734, 15.243832219392061, 154.07078852457926, 0.0, -0.01600000075995922, 1.008000047877431, 0.0, 0.0, 0.0, 0.0, 0.0, 1.740058136796232E9, 0.0, 2025-02-20 13:28:56.796
25.0, -266.2864866950549, -485.71389689529315, 13.130788744427264, 34.49122734135017, 0.0, -0.01600000075995922, 1.008000047877431, 0.0, 0.0, 0.0, 0.0, 0.0, 1.7400581368252647E9, 0.0, 2025-02-20 13:28:56.825
25.0, -141.52342417323962, -359.2716192933731, 9.951873782090843, -158.36419367371127, 0.0, -0.01600000075995922, 1.008000047877431, 0.0, 0.0, 0.0, 0.0, 0.0, 1.740058136825426E9, 0.0, 2025-02-20 13:28:56.825
26.0, -193.39209665870294, -427.2630004878156, 10.647495173849165, -26.083932240959257, 0.0, -0.01600000075995922, 1.008000047877431, 0.0, 0.0, 0.0, 0.0, 0.0, 1.7400581368256235E9, 0.0, 2025-02-20 13:28:56.825
26.0, -323.4957363172434, -550.975151122082, 17.34565599448979, 158.84664076799527, 0.0, -0.01600000075995922, 1.008000047877431, 0.0, 0.0, 0.0, 0.0, 0.0, 1.740058136825688E9, 0.0, 2025-02-20 13:28:56.825
27.0, -258.6159518859349, -474.3221616302617, 6.649542121216655, 29.91358979558572, 0.0, -0.01600000075995922, 1.008000047877431, 0.0, 0.0, 0.0, 0.0, 0.0, 1.7400581368264186E9, 0.0, 2025-02-20 13:28:56.826
27.0, -132.31579048233107, -357.17727531818673, 10.120169280096889, -153.83891472732648, 0.0, -0.01600000075995922, 1.008000047877431, 0.0, 0.0, 0.0, 0.0, 0.0, 1.74005813682651E9, 0.0, 2025-02-20 13:28:56.826
28.0, -202.90266224602237, -430.20630175294355, 11.470273164100945, -21.56613309448585, 0.0, -0.01600000075995922, 1.008000047877431, 0.0, 0.0, 0.0, 0.0, 0.0, 1.7400581368551152E9, 0.0, 2025-02-20 13:28:56.855
28.0, -322.7178371264599, -551.337921417784, 14.88480182364583, 161.4271717374213, 0.0, -0.01600000075995922, 1.008000047877431, 0.0, 0.0, 0.0, 0.0, 0.0, 1.740058136855236E9, 0.0, 2025-02-20 13:28:56.855
29.0, -254.81995343090966, -471.049749169033, 8.332497101277113, 29.330165402498096, 0.0, -0.01600000075995922, 1.008000047877431, 0.0, 0.0, 0.0, 0.0, 0.0, 1.7400581368553958E9, 0.0, 2025-02-20 13:28:56.855
29.0, -136.8934280280955, -356.62003022478893, 7.218006914481521, -161.56928793573752, 0.0, -0.01600000075995922, 1.008000047877431, 0.0, 0.0, 0.0, 0.0, 0.0, 1.7400581368554378E9, 0.0, 2025-02-20 13:28:56.855
30.0, -199.72374728368595, -429.20026866486296, 14.353736029937863, -22.912497078534216, 0.0, -0.01600000075995922, 1.008000047877431, 0.0, 0.0, 0.0, 0.0, 0.0, 1.7400581368567264E9, 0.0, 2025-02-20 13:28:56.856
30.0, -327.1683180737309, -555.2498567714356, 10.277245078235865, 159.6469793585129, 0.0, -0.01600000075995922, 1.008000047877431, 0.0, 0.0, 0.0, 0.0, 0.0, 1.7400581368568065E9, 0.0, 2025-02-20 13:28:56.856
31.0, -254.31880683684722, -468.7646702961065, 9.23007309064269, 32.3295651669614, 0.0, -0.01600000075995922, 1.008000047877431, 0.0, 0.0, 0.0, 0.0, 0.0, 1.7400581368849657E9, 0.0, 2025-02-20 13:28:56.884
31.0, -134.82900325255468, -346.6943357423879, 8.904701794497669, -152.48133104341105, 0.0, -0.01600000075995922, 1.008000047877431, 0.0, 0.0, 0.0, 0.0, 0.0, 1.740058136885034E9, 0.0, 2025-02-20 13:28:56.885
32.0, -203.0821774438955, -434.1144972066395, 11.425394364632666, -17.56818004185334, 0.0, -0.01600000075995922, 1.008000047877431, 0.0, 0.0, 0.0, 0.0, 0.0, 1.7400581368853378E9, 0.0, 2025-02-20 13:28:56.885
32.0, -332.44905681116506, -555.5602684677579, 15.498145416378975, 163.48785661300644, 0.0, -0.01600000075995922, 1.008000047877431, 0.0, 0.0, 0.0, 0.0, 0.0, 1.7400581368854356E9, 0.0, 2025-02-20 13:28:56.885
33.0, -248.40976490685716, -469.8305417834781, 10.44554057624191, 34.78667943784967, 0.0, -0.01600000075995922, 1.008000047877431, 0.0, 0.0, 0.0, 0.0, 0.0, 1.7400581368865304E9, 0.0, 2025-02-20 13:28:56.886
33.0, -126.189834354911, -342.71882208948955, 12.85029624775052, -151.63985355338082, 0.0, -0.01600000075995922, 1.008000047877431, 0.0, 0.0, 0.0, 0.0, 0.0, 1.7400581368865695E9, 0.0, 2025-02-20 13:28:56.886
34.0, -219.8668484450318, -436.7548665753566, 11.085063468664885, -18.499415130820125, 0.0, -0.01600000075995922, 1.008000047877431, 0.0, 0.0, 0.0, 0.0, 0.0, 1.7400581369154544E9, 0.0, 2025-02-20 13:28:56.915
34.0, -347.05710603808984, -562.2846085880883, 12.382808753289282, 166.19554418092594, 0.0, -0.01600000075995922, 1.008000047877431, 0.0, 0.0, 0.0, 0.0, 0.0, 1.740058136915552E9, 0.0, 2025-02-20 13:28:56.915
35.0, -251.4316040710546, -456.50901814131066, 9.547964586876333, 30.556852587964386, 0.0, -0.01600000075995922, 1.008000047877431, 0.0, 0.0, 0.0, 0.0, 0.0, 1.7400581369159148E9, 0.0, 2025-02-20 13:28:56.915
35.0, -126.02153885690495, -335.82244657119736, 12.012558657675982, -154.14932642364874, 0.0, -0.01600000075995922, 1.008000047877431, 0.0, 0.0, 0.0, 0.0, 0.0, 1.7400581369160037E9, 0.0, 2025-02-20 13:28:56.916
36.0, -223.47959180222824, -439.9225618378259, 15.210173119790852, -14.796914174687117, 0.0, -0.01600000075995922, 1.008000047877431, 0.0, 0.0, 0.0, 0.0, 0.0, 1.740058136916256E9, 0.0, 2025-02-20 13:28:56.916
36.0, -336.5779063622467, -556.8093950529583, 17.188580196350813, 169.101446446497, 0.0, -0.01600000075995922, 1.008000047877431, 0.0, 0.0, 0.0, 0.0, 0.0, 1.7400581369163532E9, 0.0, 2025-02-20 13:28:56.916
37.0, -247.11575952218845, -458.6108419164084, 10.46050017606467, 33.87788374861702, 0.0, -0.01600000075995922, 1.008000047877431, 0.0, 0.0, 0.0, 0.0, 0.0, 1.7400581369451835E9, 0.0, 2025-02-20 13:28:56.945
37.0, -121.1521891145967, -334.4087643879466, 10.613836074247956, -143.92817984474823, 0.0, -0.01600000075995922, 1.008000047877431, 0.0, 0.0, 0.0, 0.0, 0.0, 1.7400581369453168E9, 0.0, 2025-02-20 13:28:56.945
38.0, -228.2367445458658, -447.8511497438885, 16.825809900648892, -5.809934581164271, 0.0, -0.01600000075995922, 1.008000047877431, 0.0, 0.0, 0.0, 0.0, 0.0, 1.7400581369456568E9, 0.0, 2025-02-20 13:28:56.945
38.0, -353.7029082593508, -564.9025385570712, 12.07613695692271, 171.1359520223923, 0.0, -0.01600000075995922, 1.008000047877431, 0.0, 0.0, 0.0, 0.0, 0.0, 1.7400581369457316E9, 0.0, 2025-02-20 13:28:56.945
39.0, -242.88967257225886, -455.43940675398335, 8.88600229471922, 40.5199460699223, 0.0, -0.01600000075995922, 1.008000047877431, 0.0, 0.0, 0.0, 0.0, 0.0, 1.740058136946292E9, 0.0, 2025-02-20 13:28:56.946
39.0, -123.97955348109826, -339.71194252511486, 10.812050771899521, -138.92793360399082, 0.0, -0.01600000075995922, 1.008000047877431, 0.0, 0.0, 0.0, 0.0, 0.0, 1.740058136946372E9, 0.0, 2025-02-20 13:28:56.946
40.0, -224.91945328516886, -457.1186218340881, 15.849696012213826, -0.6376529424451292, 0.0, -0.01600000075995922, 0.9920000471174717, 0.0, 0.0, 0.0, 0.0, 0.0, 1.7400581369755335E9, 0.0, 2025-02-20 13:28:56.975
40.0, -347.20670203631744, -572.9919421612285, 14.705286625772715, 179.6554441214539, 0.0, -0.01600000075995922, 0.9920000471174717, 0.0, 0.0, 0.0, 0.0, 0.0, 1.7400581369757617E9, 0.0, 2025-02-20 13:28:56.975
41.0, -238.4990300242789, -452.6718807867728, 6.2194536263123155, 31.682562474627048, 0.0, -0.01600000075995922, 0.9920000471174717, 0.0, 0.0, 0.0, 0.0, 0.0, 1.74005813697606E9, 0.0, 2025-02-20 13:28:56.976
41.0, -119.03540573967621, -337.2436085543595, 9.906994982622564, -148.019630396273, 0.0, -0.01600000075995922, 0.9920000471174717, 0.0, 0.0, 0.0, 0.0, 0.0, 1.7400581369761152E9, 0.0, 2025-02-20 13:28:56.976
42.0, -227.6458403528668, -457.0513036348857, 11.126202368177474, -10.611966124270111, 0.0, -0.01600000075995922, 0.9920000471174717, 0.0, 0.0, 0.0, 0.0, 0.0, 1.7400581369763682E9, 0.0, 2025-02-20 13:28:56.976
42.0, -350.9353822921403, -574.8731118389405, 15.015698322094977, 169.73722943896428, 0.0, -0.01600000075995922, 0.9920000471174717, 0.0, 0.0, 0.0, 0.0, 0.0, 1.740058136976564E9, 0.0, 2025-02-20 13:28:56.976
43.0, -227.9001535498537, -439.53735214238986, 13.493559040129185, 26.884270831476897, 0.0, -0.01600000075995922, 0.9920000471174717, 0.0, 0.0, 0.0, 0.0, 0.0, 1.740058137005123E9, 0.0, 2025-02-20 13:28:57.005
43.0, -114.54004599293694, -328.89241195330396, 10.232366278767586, -159.26550956303254, 0.0, -0.01600000075995922, 0.9920000471174717, 0.0, 0.0, 0.0, 0.0, 0.0, 1.740058137005181E9, 0.0, 2025-02-20 13:28:57.005
44.0, -226.96891846088693, -457.39911433076486, 8.957060393877327, -13.544047689530998, 0.0, -0.01600000075995922, 0.9920000471174717, 0.0, 0.0, 0.0, 0.0, 0.0, 1.7400581370052965E9, 0.0, 2025-02-20 13:28:57.005
44.0, -345.6359440549277, -565.8562130457722, 14.847402824088931, 159.66941875824705, 0.0, -0.01600000075995922, 0.9920000471174717, 0.0, 0.0, 0.0, 0.0, 0.0, 1.740058137005407E9, 0.0, 2025-02-20 13:28:57.005
45.0, -227.9749515489675, -441.13802932342514, 12.562323951162398, 16.27791455714032, 0.0, -0.01600000075995922, 0.9920000471174717, 0.0, 0.0, 0.0, 0.0, 0.0, 1.7400581370065377E9, 0.0, 2025-02-20 13:28:57.006
45.0, -107.79326647287235, -329.3898186474107, 9.125355891883373, -157.1300266883336, 0.0, -0.01600000075995922, 0.9920000471174717, 0.0, 0.0, 0.0, 0.0, 0.0, 1.740058137006678E9, 0.0, 2025-02-20 13:28:57.006
46.0, -238.91789881931618, -463.2445779615082, 12.435167352668941, -10.211796829011291, 0.0, -0.01600000075995922, 0.9920000471174717, 0.0, 0.0, 0.0, 0.0, 0.0, 1.7400581370350816E9, 0.0, 2025-02-20 13:28:57.035
46.0, -349.65259660733864, -568.6312188128941, 16.46303960494697, 156.14643299998716, 0.0, -0.01600000075995922, 0.9920000471174717, 0.0, 0.0, 0.0, 0.0, 0.0, 1.7400581370351467E9, 0.0, 2025-02-20 13:28:57.035
47.0, -229.46717163128778, -438.4453013553284, 11.328156965784729, 11.958330108318478, 0.0, -0.01600000075995922, 0.9920000471174717, 0.0, 0.0, 0.0, 0.0, 0.0, 1.7400581370353692E9, 0.0, 2025-02-20 13:28:57.035
47.0, -112.94684861181304, -330.38089213566855, 9.24877259042114, -160.89984584366903, 0.0, -0.01600000075995922, 0.9920000471174717, 0.0, 0.0, 0.0, 0.0, 0.0, 1.740058137035514E9, 0.0, 2025-02-20 13:28:57.035
48.0, -237.9118657312356, -466.00088422885165, 16.395721405744553, -12.339799903798848, 0.0, -0.01600000075995922, 0.9920000471174717, 0.0, 0.0, 0.0, 0.0, 0.0, 1.740058137036512E9, 0.0, 2025-02-20 13:28:57.036
48.0, -346.98604793893173, -576.5710264188237, 12.117275856435299, 153.99973042542115, 0.0, -0.01600000075995922, 0.9920000471174717, 0.0, 0.0, 0.0, 0.0, 0.0, 1.7400581370366817E9, 0.0, 2025-02-20 13:28:57.036
49.0, -219.65741404751316, -429.58173846034333, 10.613836074247956, 9.392758738715202, 0.0, -0.01600000075995922, 0.9920000471174717, 0.0, 0.0, 0.0, 0.0, 0.0, 1.7400581370652487E9, 0.0, 2025-02-20 13:28:57.065
49.0, -110.90486323600635, -323.4583373176865, 9.506825687363744, -157.2796226865612, 0.0, -0.01600000075995922, 0.9920000471174717, 0.0, 0.0, 0.0, 0.0, 0.0, 1.740058137065388E9, 0.0, 2025-02-20 13:28:57.065
50.0, -242.59422047575936, -467.3248088131659, 11.384255465120077, -11.980769508052617, 0.0, -0.01600000075995922, 0.9920000471174717, 0.0, 0.0, 0.0, 0.0, 0.0, 1.7400581370659745E9, 0.0, 2025-02-20 13:28:57.065
50.0, -359.94106138544157, -569.4203377035446, 16.85572910029441, 161.30375503888354, 0.0, -0.01600000075995922, 0.9920000471174717, 0.0, 0.0, 0.0, 0.0, 0.0, 1.740058137066049E9, 0.0, 2025-02-20 13:28:57.066
51.0, -218.6401612595655, -434.4136892030947, 9.226333190687, 17.56070024194196, 0.0, 0.0, 0.9920000471174717, 0.0, 0.0, 0.0, 0.0, 0.0, 1.7400581370662916E9, 0.0, 2025-02-20 13:28:57.066
51.0, -100.52290095901117, -323.3573600188829, 13.377622141502798, -159.93121175514534, 0.0, 0.0, 0.9920000471174717, 0.0, 0.0, 0.0, 0.0, 0.0, 1.740058137066342E9, 0.0, 2025-02-20 13:28:57.066
52.0, -248.92213120078668, -479.85721356468275, 14.305117330513895, -4.033482102211565, 0.0, 0.0, 0.9920000471174717, 0.0, 0.0, 0.0, 0.0, 0.0, 1.740058137095095E9, 0.0, 2025-02-20 13:28:57.095
52.0, -366.28767161024734, -585.9581753076054, 15.599122715182602, 169.70357033936307, 0.0, 0.0, 0.9920000471174717, 0.0, 0.0, 0.0, 0.0, 0.0, 1.7400581370951664E9, 0.0, 2025-02-20 13:28:57.095
53.0, -215.76791809359565, -424.3683179221116, 9.955613682046533, 20.971489001531154, 0.0, 0.0, 0.9920000471174717, 0.0, 0.0, 0.0, 0.0, 0.0, 1.740058137095384E9, 0.0, 2025-02-20 13:28:57.095
53.0, -96.34543270850554, -329.3225004482083, 10.737252772785723, -152.2382375462912, 0.0, 0.0, 0.9920000471174717, 0.0, 0.0, 0.0, 0.0, 0.0, 1.7400581370954552E9, 0.0, 2025-02-20 13:28:57.095
54.0, -252.86772565403953, -481.63740594359115, 11.25709886662662, -1.0303424377925694, 0.0, 0.0, 0.9920000471174717, 0.0, 0.0, 0.0, 0.0, 0.0, 1.7400581370962331E9, 0.0, 2025-02-20 13:28:57.096
54.0, -360.4459478794597, -582.8989371438511, 16.702393202111125, 172.01108861202374, 0.0, 0.0, 0.9920000471174717, 0.0, 0.0, 0.0, 0.0, 0.0, 1.740058137096288E9, 0.0, 2025-02-20 13:28:57.096
55.0, -203.35519014066085, -427.0760054900311, 12.599722950719297, 20.578799506183714, 0.0, 0.0, 0.9920000471174717, 0.0, 0.0, 0.0, 0.0, 0.0, 1.7400581371254938E9, 0.0, 2025-02-20 13:28:57.125
55.0, -100.79217375582084, -323.77622881392017, 8.781285095959902, -156.8308346918784, 0.0, 0.0, 0.9920000471174717, 0.0, 0.0, 0.0, 0.0, 0.0, 1.740058137125703E9, 0.0, 2025-02-20 13:28:57.125
56.0, -257.9951284932904, -483.5410150210373, 12.214513255283237, -4.014782602433115, 0.0, 0.0, 0.9920000471174717, 0.0, 0.0, 0.0, 0.0, 0.0, 1.740058137125955E9, 0.0, 2025-02-20 13:28:57.125
56.0, -366.31759080989286, -588.736920974683, 11.862962659448385, 170.45155033050105, 0.0, 0.0, 0.9920000471174717, 0.0, 0.0, 0.0, 0.0, 0.0, 1.7400581371260283E9, 0.0, 2025-02-20 13:28:57.126
57.0, -212.32721013436094, -423.34358533425257, 10.961646770127118, 16.72670255182311, 0.0, 0.0, 0.9920000471174717, 0.0, 0.0, 0.0, 0.0, 0.0, 1.7400581371263351E9, 0.0, 2025-02-20 13:28:57.126
57.0, -102.9912349297665, -319.9503111592494, 10.0416313810274, -152.51499014301226, 0.0, 0.0, 0.9920000471174717, 0.0, 0.0, 0.0, 0.0, 0.0, 1.7400581371263864E9, 0.0, 2025-02-20 13:28:57.126
58.0, -264.20710231969133, -491.48830242687836, 14.596829527057707, 0.16642554802820086, 0.0, 0.0, 0.9920000471174717, 0.0, 0.0, 0.0, 0.0, 0.0, 1.7400581371552398E9, 0.0, 2025-02-20 13:28:57.155
58.0, -364.5635777306743, -587.1736427932046, 11.208480167202652, 168.44696395425126, 0.0, 0.0, 0.9920000471174717, 0.0, 0.0, 0.0, 0.0, 0.0, 1.7400581371555278E9, 0.0, 2025-02-20 13:28:57.155
59.0, -199.20764108980075, -417.4083641045727, 8.990719493478537, 13.424370890948921, 0.0, 0.0, 0.9920000471174717, 0.0, 0.0, 0.0, 0.0, 0.0, 1.7400581371564622E9, 0.0, 2025-02-20 13:28:57.156
59.0, -93.23009604541585, -307.5637625060044, 12.4501269524917, -153.99225062550977, 0.0, 0.0, 0.9920000471174717, 0.0, 0.0, 0.0, 0.0, 0.0, 1.7400581371565547E9, 0.0, 2025-02-20 13:28:57.156
60.0, -258.33919928921387, -493.2198761063628, 14.780084624886513, -4.388772598002106, 0.0, 0.0, 0.9920000471174717, 0.0, 0.0, 0.0, 0.0, 0.0, 1.7400581371567323E9, 0.0, 2025-02-20 13:28:57.156
60.0, -370.4875792604871, -588.8865169729106, 14.282677930779755, 169.11266614636406, 0.0, 0.0, 0.9920000471174717, 0.0, 0.0, 0.0, 0.0, 0.0, 1.7400581371568E9, 0.0, 2025-02-20 13:28:57.156
61.0, -201.20474766613916, -403.92602476431057, 8.152981903403997, 11.0607541189529, 0.0, 0.0, 0.9920000471174717, 0.0, 0.0, 0.0, 0.0, 0.0, 1.7400581371851537E9, 0.0, 2025-02-20 13:28:57.185
61.0, -92.11934575857595, -310.89601336652413, 10.06407078076154, -157.1337665882893, 0.0, 0.0, 0.9920000471174717, 0.0, 0.0, 0.0, 0.0, 0.0, 1.7400581371852562E9, 0.0, 2025-02-20 13:28:57.185
62.0, -262.9317964348011, -491.0956129315309, 12.659561350010335, -6.602793371770531, 0.0, 0.0, 0.9920000471174717, 0.0, 0.0, 0.0, 0.0, 0.0, 1.740058137185419E9, 0.0, 2025-02-20 13:28:57.185
62.0, -369.668541170191, -592.5590987293981, 13.089649844914675, 171.70067691570148, 0.0, 0.0, 0.9920000471174717, 0.0, 0.0, 0.0, 0.0, 0.0, 1.740058137185462E9, 0.0, 2025-02-20 13:28:57.185
63.0, -190.665709591005, -404.3299339595251, 9.024378593079746, 13.203716793563217, 0.0, 0.0, 0.9920000471174717, 0.0, 0.0, 0.0, 0.0, 0.0, 1.7400581371864228E9, 0.0, 2025-02-20 13:28:57.186
63.0, -90.27557508042082, -312.70612494507805, 3.665101956576109, -154.53079621912912, 0.0, 0.0, 0.9920000471174717, 0.0, 0.0, 0.0, 0.0, 0.0, 1.7400581371865113E9, 0.0, 2025-02-20 13:28:57.186
64.0, -272.629357019905, -500.04893342545256, 14.578130027279258, 5.780015381518751, 0.0, 0.0, 0.9920000471174717, 0.0, 0.0, 0.0, 0.0, 0.0, 1.7400581372152352E9, 0.0, 2025-02-20 13:28:57.215
64.0, -375.02781780669466, -589.7205146630295, 15.557983815670013, 170.81806052615866, 0.0, 0.0, 0.9920000471174717, 0.0, 0.0, 0.0, 0.0, 0.0, 1.740058137215308E9, 0.0, 2025-02-20 13:28:57.215
65.0, -191.6605229792185, -399.9131121118553, 6.724340120330453, 10.727903022896498, 0.0, 0.0, 0.9920000471174717, 0.0, 0.0, 0.0, 0.0, 0.0, 1.7400581372155392E9, 0.0, 2025-02-20 13:28:57.215
65.0, -91.5060021658428, -308.2032853984274, 9.499345887452364, -154.82624831562862, 0.0, 0.0, 0.9920000471174717, 0.0, 0.0, 0.0, 0.0, 0.0, 1.7400581372156076E9, 0.0, 2025-02-20 13:28:57.215
66.0, -265.0635394095443, -504.76494726957753, 15.591642915271223, 2.6384994187392294, 0.0, 0.0, 0.9920000471174717, 0.0, 0.0, 0.0, 0.0, 0.0, 1.7400581372169745E9, 0.0, 2025-02-20 13:28:57.216
66.0, -366.77385860448703, -592.6189371286891, 14.323816830292344, 167.84484006138518, 0.0, 0.0, 0.9920000471174717, 0.0, 0.0, 0.0, 0.0, 0.0, 1.7400581372170568E9, 0.0, 2025-02-20 13:28:57.217
67.0, -185.34757185401395, -408.0286950157024, 9.813497483730316, 3.8464871044270694, 0.0, 0.0, 0.9920000471174717, 0.0, 0.0, 0.0, 0.0, 0.0, 1.7400581372454944E9, 0.0, 2025-02-20 13:28:57.245
67.0, -87.90073860855773, -311.58789485832676, 7.775252007879317, -157.67231218190864, 0.0, 0.0, 0.9920000471174717, 0.0, 0.0, 0.0, 0.0, 0.0, 1.7400581372455893E9, 0.0, 2025-02-20 13:28:57.245
68.0, -276.21218117745593, -505.0828387658112, 12.992412446066737, -2.660938818473369, 0.0, 0.0, 0.9920000471174717, 0.0, 0.0, 0.0, 0.0, 0.0, 1.7400581372460206E9, 0.0, 2025-02-20 13:28:57.246
68.0, -380.40953384293243, -593.1013842229731, 14.032104633748531, 166.45359727786854, 0.0, 0.0, 0.9920000471174717, 0.0, 0.0, 0.0, 0.0, 0.0, 1.7400581372460997E9, 0.0, 2025-02-20 13:28:57.246
69.0, -185.5869254511781, -392.73998399684206, 9.858376283198595, 11.524501713458449, 0.0, 0.0, 0.9920000471174717, 0.0, 0.0, 0.0, 0.0, 0.0, 1.7400581372462676E9, 0.0, 2025-02-20 13:28:57.246
69.0, -80.84354739217088, -299.6015155003406, 8.799984595738351, -155.8285415037535, 0.0, 0.0, 0.9920000471174717, 0.0, 0.0, 0.0, 0.0, 0.0, 1.7400581372463293E9, 0.0, 2025-02-20 13:28:57.246
70.0, -280.1241165311076, -517.2823924212717, 14.548210827633739, 0.4880569442175329, 0.0, 0.0, 0.9920000471174717, 0.0, 0.0, 0.0, 0.0, 0.0, 1.74005813727539E9, 0.0, 2025-02-20 13:28:57.275
70.0, -371.3851552498527, -603.7825384964235, 12.820377048105001, 166.79392817383632, 0.0, 0.0, 0.9920000471174717, 0.0, 0.0, 0.0, 0.0, 0.0, 1.7400581372754643E9, 0.0, 2025-02-20 13:28:57.275
71.0, -169.90178503701463, -390.36514752497897, 9.727479784749448, 3.8427472044713795, 0.0, -0.01600000075995922, 0.9920000471174717, 0.0, 0.0, 0.0, 0.0, 0.0, 1.7400581372759128E9, 0.0, 2025-02-20 13:28:57.275
71.0, -88.78335499810055, -303.3152361563407, 6.174574826844037, -162.0928739295341, 0.0, -0.01600000075995922, 0.9920000471174717, 0.0, 0.0, 0.0, 0.0, 0.0, 1.7400581372759814E9, 0.0, 2025-02-20 13:28:57.275
72.0, -291.4896724964492, -518.9765671011992, 15.771158113144338, 6.595313571859151, 0.0, -0.01600000075995922, 0.9920000471174717, 0.0, 0.0, 0.0, 0.0, 0.0, 1.740058137276401E9, 0.0, 2025-02-20 13:28:57.276
72.0, -377.8664018730633, -594.2233542096801, 12.10605615656823, 174.38592508388683, 0.0, -0.01600000075995922, 0.9920000471174717, 0.0, 0.0, 0.0, 0.0, 0.0, 1.740058137276506E9, 0.0, 2025-02-20 13:28:57.276
73.0, -168.4731432539411, -396.539722351823, 13.946086934767663, 11.315067315939814, 0.0, -0.01600000075995922, 0.9920000471174717, 0.0, 0.0, 0.0, 0.0, 0.0, 1.7400581373062243E9, 0.0, 2025-02-20 13:28:57.306
73.0, -85.41370513802394, -303.5732892532833, 9.360969589091837, -156.69993819342926, 0.0, -0.01600000075995922, 0.9920000471174717, 0.0, 0.0, 0.0, 0.0, 0.0, 1.7400581373065724E9, 0.0, 2025-02-20 13:28:57.306
74.0, -285.95088066207245, -517.4506879192777, 11.215959967114031, 7.612566359806806, 0.0, -0.01600000075995922, 0.9920000471174717, 0.0, 0.0, 0.0, 0.0, 0.0, 1.7400581373070133E9, 0.0, 2025-02-20 13:28:57.307
74.0, -375.6411613994278, -599.3544969488867, 14.88480182364583, 172.80394740263, 0.0, -0.01600000075995922, 0.9920000471174717, 0.0, 0.0, 0.0, 0.0, 0.0, 1.7400581373071325E9, 0.0, 2025-02-20 13:28:57.307
75.0, -165.02869539475068, -386.84964156663045, 9.705040385015309, 1.651165830437094, 0.0, -0.01600000075995922, 0.9920000471174717, 0.0, 0.0, 0.0, 0.0, 0.0, 1.7400581373072865E9, 0.0, 2025-02-20 13:28:57.307
75.0, -86.22526342840865, -304.276390444953, 7.760292408056557, -153.73419752856717, 0.0, -0.01600000075995922, 0.9920000471174717, 0.0, 0.0, 0.0, 0.0, 0.0, 1.7400581373073707E9, 0.0, 2025-02-20 13:28:57.307
76.0, -292.65652128262445, -522.8361438554712, 14.192920331843197, 14.022754883859307, 0.0, -0.01600000075995922, 0.9920000471174717, 0.0, 0.0, 0.0, 0.0, 0.0, 1.7400581373349648E9, 0.0, 2025-02-20 13:28:57.334
76.0, -380.36839494341984, -604.0368516934104, 15.064317021518946, 171.99612901220098, 0.0, -0.01600000075995922, 0.9920000471174717, 0.0, 0.0, 0.0, 0.0, 0.0, 1.74005813733506E9, 0.0, 2025-02-20 13:28:57.335
77.0, -161.92457843152806, -380.5628697411157, 8.538191598840058, 2.900292415637523, 0.0, -0.01600000075995922, 0.9920000471174717, 0.0, 0.0, 0.0, 0.0, 0.0, 1.740058137335263E9, 0.0, 2025-02-20 13:28:57.335
77.0, -82.29836847493425, -303.4573523546569, 9.835936883464456, -151.18358575878665, 0.0, -0.01600000075995922, 0.9920000471174717, 0.0, 0.0, 0.0, 0.0, 0.0, 1.740058137335304E9, 0.0, 2025-02-20 13:28:57.335
78.0, -293.5353977722116, -534.3251165193506, 15.415867617353797, 7.4667102615348995, 0.0, -0.01600000075995922, 0.9920000471174717, 0.0, 0.0, 0.0, 0.0, 0.0, 1.740058137336208E9, 0.0, 2025-02-20 13:28:57.336
78.0, -391.10938761616126, -606.5687639634125, 13.826410136185586, 169.8793456372805, 0.0, -0.01600000075995922, 0.9920000471174717, 0.0, 0.0, 0.0, 0.0, 0.0, 1.7400581373362808E9, 0.0, 2025-02-20 13:28:57.336
79.0, -162.78849532129243, -381.43800633074716, 9.742439384572208, 4.463570597115904, 0.0, -0.01600000075995922, 0.9920000471174717, 0.0, 0.0, 0.0, 0.0, 0.0, 1.7400581373648853E9, 0.0, 2025-02-20 13:28:57.364
79.0, -76.06395524879918, -297.9036009204574, 13.403801441192627, -156.7560366927646, 0.0, -0.01600000075995922, 0.9920000471174717, 0.0, 0.0, 0.0, 0.0, 0.0, 1.7400581373650467E9, 0.0, 2025-02-20 13:28:57.365
80.0, -304.4521657428704, -534.0633235224523, 9.379669088870287, 6.714990370441228, 0.0, -0.01600000075995922, 0.9920000471174717, 0.0, 0.0, 0.0, 0.0, 0.0, 1.7400581373656223E9, 0.0, 2025-02-20 13:28:57.365
80.0, -382.9863249124028, -604.0331117934547, 12.539884551428258, 171.59221981698647, 0.0, -0.01600000075995922, 0.9920000471174717, 0.0, 0.0, 0.0, 0.0, 0.0, 1.7400581373659198E9, 0.0, 2025-02-20 13:28:57.365
81.0, -158.427771972958, -366.5606843070127, 11.163601367734373, -1.2958753346465528, 0.0, 0.0, 0.9920000471174717, 0.0, 0.0, 0.0, 0.0, 0.0, 1.7400581373664615E9, 0.0, 2025-02-20 13:28:57.366
81.0, -79.86369360378012, -298.9021542086266, 7.199307414703071, -158.3492340738885, 0.0, 0.0, 0.9920000471174717, 0.0, 0.0, 0.0, 0.0, 0.0, 1.7400581373665693E9, 0.0, 2025-02-20 13:28:57.366
82.0, -312.41067284857854, -537.878021477256, 20.030904162675142, 10.944817220326513, -0.01600000075995922, 0.0, 0.9920000471174717, 0.0, 0.0, 0.0, 0.0, 0.0, 1.74005813739519E9, 0.0, 2025-02-20 13:28:57.395
82.0, -388.9888643412851, -616.6066554444842, 14.320076930336654, 172.66931100422516, -0.01600000075995922, 0.0, 0.9920000471174717, 0.0, 0.0, 0.0, 0.0, 0.0, 1.7400581373953617E9, 0.0, 2025-02-20 13:28:57.395
83.0, -158.0163829778321, -858.7894869251177, 8.796244695782661, -4.067141201812774, -0.01600000075995922, 0.0, 0.9920000471174717, 0.0, 0.0, 0.0, 0.0, 0.0, 1.7400581373955295E9, 0.0, 2025-02-20 13:28:57.395
83.0, -75.77972285216674, -785.5547659927979, 13.358922641724348, -152.78800283977762, -0.01600000075995922, 0.0, 0.9920000471174717, 0.0, 0.0, 0.0, 0.0, 0.0, 1.7400581373956199E9, 0.0, 2025-02-20 13:28:57.395
84.0, -309.63192718150094, -541.7824770309962, 15.782377813011408, 11.913451308850199, -0.01600000075995922, 0.0, 0.9920000471174717, 0.0, 0.0, 0.0, 0.0, 0.0, 1.7400581373967032E9, 0.0, 2025-02-20 13:28:57.396
84.0, -391.44597861217335, -609.0408378341235, 13.575836839154363, 168.5853402526118, -0.01600000075995922, 0.0, 0.9920000471174717, 0.0, 0.0, 0.0, 0.0, 0.0, 1.7400581373968549E9, 0.0, 2025-02-20 13:28:57.396
85.0, -156.21001129923388, -853.7780209844932, 11.68344746157527, -2.488903420511633, -0.01600000075995922, 0.0, 0.9920000471174717, 0.0, 0.0, 0.0, 0.0, 0.0, 1.7400581374255712E9, 0.0, 2025-02-20 13:28:57.425
85.0, -73.73025767644867, -785.3677709950134, 14.47341282851994, -157.26840298669413, -0.01600000075995922, 0.0, 0.9920000471174717, 0.0, 0.0, 0.0, 0.0, 0.0, 1.7400581374259017E9, 0.0, 2025-02-20 13:28:57.425
86.0, -311.30740236165, -541.0943354391493, 12.184594055637717, 3.9661639030091465, -0.01600000075995922, 0.0, 0.9920000471174717, 0.0, 0.0, 0.0, 0.0, 0.0, 1.7400581374261208E9, 0.0, 2025-02-20 13:28:57.426
86.0, -393.8282948839478, -609.9982522227801, 13.444940340705216, 174.8833317779936, -0.01600000075995922, 0.0, 0.9920000471174717, 0.0, 0.0, 0.0, 0.0, 0.0, 1.7400581374262033E9, 0.0, 2025-02-20 13:28:57.426
87.0, -636.0073864646256, -847.8988982541487, 12.663301249966025, -5.4135051858611405, -0.01600000075995922, 0.0, 0.9920000471174717, 0.0, 0.0, 0.0, 0.0, 0.0, 1.7400581374265E9, 0.0, 2025-02-20 13:28:57.426
87.0, -555.3751434199512, -771.3693254608661, 9.432027688249946, -159.19819136383012, -0.01600000075995922, 0.0, 0.9920000471174717, 0.0, 0.0, 0.0, 0.0, 0.0, 1.7400581374267266E9, 0.0, 2025-02-20 13:28:57.426
88.0, -320.0924273575656, -545.4027001881041, 16.638814902864397, 8.24834935227409, -0.01600000075995922, 0.0, 0.9920000471174717, 0.0, 0.0, 0.0, 0.0, 0.0, 1.7400581374550784E9, 0.0, 2025-02-20 13:28:57.455
88.0, -396.3564672539942, -611.3483561067842, 13.100869544781744, 166.67425137525424, -0.01600000075995922, 0.0, 0.9920000471174717, 0.0, 0.0, 0.0, 0.0, 0.0, 1.7400581374553738E9, 0.0, 2025-02-20 13:28:57.455
89.0, -633.3670170959085, -843.1866243099794, 10.501639075577259, -2.855413616169244, -0.01600000075995922, 0.0, 0.9920000471174717, 0.0, 0.0, 0.0, 0.0, 0.0, 1.7400581374555764E9, 0.0, 2025-02-20 13:28:57.455
89.0, -561.9087486425415, -781.8260857369751, 5.486433234997094, -160.3126815506257, -0.01600000075995922, 0.0, 0.9920000471174717, 0.0, 0.0, 0.0, 0.0, 0.0, 1.7400581374556625E9, 0.0, 2025-02-20 13:28:57.455
90.0, -325.9079717886634, -550.5936813266017, 13.28786454256624, 10.002362431492656, -0.01600000075995922, 0.0, 0.9920000471174717, 0.0, 0.0, 0.0, 0.0, 0.0, 1.7400581374562848E9, 0.0, 2025-02-20 13:28:57.456
90.0, -394.41545917699113, -610.7686716136523, 15.872135411947966, 171.72311631543562, -0.01600000075995922, 0.0, 0.9920000471174717, 0.0, 0.0, 0.0, 0.0, 0.0, 1.7400581374564996E9, 0.0, 2025-02-20 13:28:57.456
91.0, -626.4108031783253, -841.9337578248233, 11.436614064499736, -4.822600992862135, -0.01600000075995922, 0.0, 0.9920000471174717, 0.0, 0.0, 0.0, 0.0, 0.0, 1.7400581374852502E9, 0.0, 2025-02-20 13:28:57.485
91.0, -559.4142353720963, -780.1580903567374, 9.050557892769575, -154.30266232183203, -0.01600000075995922, 0.0, 0.9920000471174717, 0.0, 0.0, 0.0, 0.0, 0.0, 1.740058137485328E9, 0.0, 2025-02-20 13:28:57.485
92.0, -324.5055093052797, -557.8902261401527, 12.917614446952939, 17.08573294756934, -0.01600000075995922, 0.0, 0.9920000471174717, 0.0, 0.0, 0.0, 0.0, 0.0, 1.7400581374856164E9, 0.0, 2025-02-20 13:28:57.485
92.0, -395.44019176485017, -615.1518343617208, 14.05828393343836, 173.7351824915968, -0.01600000075995922, 0.0, 0.9920000471174717, 0.0, 0.0, 0.0, 0.0, 0.0, 1.7400581374856696E9, 0.0, 2025-02-20 13:28:57.485
93.0, -620.999167942442, -837.60669357609, 11.848003059625626, -4.067141201812774, -0.01600000075995922, 0.0, 0.9920000471174717, 0.0, 0.0, 0.0, 0.0, 0.0, 1.7400581374865956E9, 0.0, 2025-02-20 13:28:57.486
93.0, -557.282492397353, -770.4081711722538, 9.727479784749448, -153.93241222621873, -0.01600000075995922, 0.0, 0.9920000471174717, 0.0, 0.0, 0.0, 0.0, 0.0, 1.7400581374866955E9, 0.0, 2025-02-20 13:28:57.486
94.0, -326.86164627736434, -553.7950356886722, 17.080123097635806, 21.9550826898776, -0.01600000075995922, 0.0, 0.9920000471174717, 0.0, 0.0, 0.0, 0.0, 0.0, 1.7400581375150344E9, 0.0, 2025-02-20 13:28:57.515
94.0, -397.14932604460046, -612.881715088617, 9.327310489490628, 171.89141181344166, -0.01600000075995922, 0.0, 0.9920000471174717, 0.0, 0.0, 0.0, 0.0, 0.0, 1.7400581375151577E9, 0.0, 2025-02-20 13:28:57.515
95.0, -614.6488178176805, -838.9867166597396, 9.705040385015309, -5.723916882183403, -0.01600000075995922, 0.0, 0.9920000471174717, 0.0, 0.0, 0.0, 0.0, 0.0, 1.7400581375154092E9, 0.0, 2025-02-20 13:28:57.515
95.0, -552.0054935598746, -774.1555509278551, 6.4588072234764695, -156.17635219963267, -0.01600000075995922, 0.0, 0.9920000471174717, 0.0, 0.0, 0.0, 0.0, 0.0, 1.7400581375156326E9, 0.0, 2025-02-20 13:28:57.515
96.0, -335.60553237376735, -563.0625077788718, 7.894928806461394, 15.50375526631251, -0.01600000075995922, 0.0, 0.9920000471174717, 0.0, 0.0, 0.0, 0.0, 0.0, 1.7400581375162034E9, 0.0, 2025-02-20 13:28:57.516
96.0, -402.5497415806167, -626.341615029145, 9.824717183597386, 169.25852224463597, -0.01600000075995922, 0.0, 0.9920000471174717, 0.0, 0.0, 0.0, 0.0, 0.0, 1.7400581375162652E9, 0.0, 2025-02-20 13:28:57.516
97.0, -620.3820844497532, -833.638659723103, 7.954767205752432, -3.263062711339444, -0.01600000075995922, 0.0, 0.9920000471174717, 0.0, 0.0, 0.0, 0.0, 0.0, 1.7400581375449083E9, 0.0, 2025-02-20 13:28:57.544
97.0, -556.6766286045313, -775.5879326108843, 10.43058097641915, -156.99165038997307, -0.01600000075995922, 0.0, 0.9920000471174717, 0.0, 0.0, 0.0, 0.0, 0.0, 1.7400581375449862E9, 0.0, 2025-02-20 13:28:57.544
98.0, -338.4403765401803, -566.7425693352707, 9.854636383242905, 21.97378218965605, -0.01600000075995922, 0.0, 0.9920000471174717, 0.0, 0.0, 0.0, 0.0, 0.0, 1.7400581375452716E9, 0.0, 2025-02-20 13:28:57.545
98.0, -400.8705265005119, -624.4342660517432, 12.951273546554148, 175.87066536629573, -0.01600000075995922, 0.0, 0.9920000471174717, 0.0, 0.0, 0.0, 0.0, 0.0, 1.7400581375454504E9, 0.0, 2025-02-20 13:28:57.545
99.0, -614.6525577176362, -825.0443696249276, 11.436614064499736, -7.956637155730277, -0.01600000075995922, 0.0, 0.9920000471174717, 0.0, 0.0, 0.0, 0.0, 0.0, 1.740058137546236E9, 0.0, 2025-02-20 13:28:57.546
99.0, -548.213235004805, -771.032734464854, 5.901562130078673, -153.7192379287444, -0.01600000075995922, 0.0, 0.9920000471174717, 0.0, 0.0, 0.0, 0.0, 0.0, 1.7400581375462995E9, 0.0, 2025-02-20 13:28:57.546
100.0, -341.6566905020736, -577.6929964055307, 12.221993055194616, 27.52005382394418, -0.01600000075995922, 0.0, 1.008000047877431, 0.0, 0.0, 0.0, 0.0, 0.0, 1.7400581375750709E9, 0.0, 2025-02-20 13:28:57.575
100.0, -399.9916500109248, -624.3931271522306, 11.934020758606493, 180.7661944082938, -0.01600000075995922, 0.0, 1.008000047877431, 0.0, 0.0, 0.0, 0.0, 0.0, 1.740058137575261E9, 0.0, 2025-02-20 13:28:57.575
0.0, -114.70834149094298, -324.0024927612394, 10.692373973317444, -4.072751051746309, -0.01600000075995922, 0.0, 1.008000047877431, 0.0, 0.0, 0.0, 0.0, 0.0, 1.7400581375753493E9, 0.0, 2025-02-20 13:28:57.575
1.0, -61.00711802719161, -284.5428083287552, 11.421654464676976, -146.4058635653928, -0.01600000075995922, -0.01600000075995922, 1.008000047877431, 0.0, 0.0, 0.0, 0.0, 0.0, 1.7400581375765283E9, 0.0, 2025-02-20 13:28:57.576
1.0, 143.68695629760623, -91.86503256158903, 13.886248535476625, 32.402493216097355, -0.01600000075995922, -0.01600000075995922, 1.008000047877431, 0.0, 0.0, 0.0, 0.0, 0.0, 1.7400581375766065E9, 0.0, 2025-02-20 13:28:57.576
2.0, 89.26767204236239, -135.22169274790213, 15.2662716191262, 177.42833369784057, -0.01600000075995922, -0.01600000075995922, 1.008000047877431, 0.0, 0.0, 0.0, 0.0, 0.0, 1.7400581375769866E9, 0.0, 2025-02-20 13:28:57.576
2.0, -114.6634626914747, -325.21796024683863, 9.847156583331525, -2.086864175274968, -0.01600000075995922, -0.01600000075995922, 1.008000047877431, 0.0, 0.0, 0.0, 0.0, 0.0, 1.7400581375770485E9, 0.0, 2025-02-20 13:28:57.577
3.0, -62.50307800946757, -279.41166558954865, 8.145502103492618, -146.40960346534848, -0.01600000075995922, -0.01600000075995922, 1.008000047877431, 0.0, 0.0, 0.0, 0.0, 0.0, 1.7400581376072025E9, 0.0, 2025-02-20 13:28:57.607
3.0, 136.75318177975714, -89.38173899101093, 16.03669100999832, 30.96637163311243, -0.01600000075995922, -0.01600000075995922, 1.008000047877431, 0.0, 0.0, 0.0, 0.0, 0.0, 1.740058137607285E9, 0.0, 2025-02-20 13:28:57.607
4.0, 81.34282403625548, -137.83588281692937, 14.349996129982173, 175.68180041853338, -0.01600000075995922, -0.01600000075995922, 1.008000047877431, 0.0, 0.0, 0.0, 0.0, 0.0, 1.740058137607458E9, 0.0, 2025-02-20 13:28:57.607
4.0, -110.366317642387, -323.2582526700571, 10.288464778102934, -4.270965749397874, -0.01600000075995922, -0.01600000075995922, 1.008000047877431, 0.0, 0.0, 0.0, 0.0, 0.0, 1.7400581376075208E9, 0.0, 2025-02-20 13:28:57.607
5.0, -63.44553279830143, -276.66283912211657, 11.967679858207703, -142.5163676114753, -0.01600000075995922, -0.01600000075995922, 1.008000047877431, 0.0, 0.0, 0.0, 0.0, 0.0, 1.7400581376352906E9, 0.0, 2025-02-20 13:28:57.635
5.0, 130.58608675282449, -100.20500946277753, 13.867549035698175, 30.12115424312651, -0.01600000075995922, -0.01600000075995922, 1.008000047877431, 0.0, 0.0, 0.0, 0.0, 0.0, 1.7400581376353936E9, 0.0, 2025-02-20 13:28:57.635
6.0, 79.1849017618224, -136.23894553584978, 10.969126570038497, 178.5652632843703, -0.01600000075995922, -0.01600000075995922, 1.008000047877431, 0.0, 0.0, 0.0, 0.0, 0.0, 1.7400581376356423E9, 0.0, 2025-02-20 13:28:57.635
6.0, -103.28294712631032, -318.7142742238939, 7.554597910493612, -1.2379068853333592, -0.01600000075995922, -0.01600000075995922, 1.008000047877431, 0.0, 0.0, 0.0, 0.0, 0.0, 1.7400581376357496E9, 0.0, 2025-02-20 13:28:57.635
7.0, -56.42574058147147, -281.07592106983066, 5.400415536016226, -152.24010749626905, -0.01600000075995922, -0.01600000075995922, 1.008000047877431, 0.0, 0.0, 0.0, 0.0, 0.0, 1.7400581376361823E9, 0.0, 2025-02-20 13:28:57.636
7.0, 132.42237763106823, -104.74524800898507, 8.336237001232803, 21.186533248983324, -0.01600000075995922, -0.01600000075995922, 1.008000047877431, 0.0, 0.0, 0.0, 0.0, 0.0, 1.7400581376362476E9, 0.0, 2025-02-20 13:28:57.636
8.0, 81.40640233550221, -139.05509020248428, 16.47051940485835, 171.03310477361083, -0.01600000075995922, -0.01600000075995922, 1.008000047877431, 0.0, 0.0, 0.0, 0.0, 0.0, 1.740058137636868E9, 0.0, 2025-02-20 13:28:57.636
8.0, -104.92850310681388, -309.3308652350679, 8.568110798485577, -13.179407443851233, -0.01600000075995922, -0.01600000075995922, 1.008000047877431, 0.0, 0.0, 0.0, 0.0, 0.0, 1.740058137637023E9, 0.0, 2025-02-20 13:28:57.637
9.0, -59.604655543807894, -276.58804112300277, 9.66016158554703, -158.73257381934673, -0.01600000075995922, -0.01600000075995922, 1.008000047877431, 0.0, 0.0, 0.0, 0.0, 0.0, 1.7400581376649444E9, 0.0, 2025-02-20 13:28:57.664
9.0, 122.94547114335, -98.74644848005846, 14.353736029937863, 26.082062290981412, -0.01600000075995922, -0.01600000075995922, 1.008000047877431, 0.0, 0.0, 0.0, 0.0, 0.0, 1.740058137665026E9, 0.0, 2025-02-20 13:28:57.665
10.0, 81.39144273567945, -135.17681394843385, 9.996752581559122, 165.93936103396118, -0.01600000075995922, -0.01600000075995922, 1.008000047877431, 0.0, 0.0, 0.0, 0.0, 0.0, 1.7400581376656928E9, 0.0, 2025-02-20 13:28:57.665
10.0, -96.27063470939174, -301.38357782922685, 11.309457466006279, -21.579222744330764, -0.01600000075995922, -0.01600000075995922, 1.008000047877431, 0.0, 0.0, 0.0, 0.0, 0.0, 1.7400581376658056E9, 0.0, 2025-02-20 13:28:57.665
11.0, -57.46917266910896, -271.8682873789221, 12.360369353555143, -158.5530586214736, -0.01600000075995922, -0.01600000075995922, 1.008000047877431, 0.0, 0.0, 0.0, 0.0, 0.0, 1.7400581376949613E9, 0.0, 2025-02-20 13:28:57.694
11.0, 115.43949193228036, -106.289826690685, 15.483185816556215, 25.236844900995493, -0.01600000075995922, -0.01600000075995922, 1.008000047877431, 0.0, 0.0, 0.0, 0.0, 0.0, 1.7400581376951163E9, 0.0, 2025-02-20 13:28:57.695
12.0, 79.32327806018293, -134.51111175632104, 10.131388979963958, 160.43048839922994, 0.0, -0.01600000075995922, 1.008000047877431, 0.0, 0.0, 0.0, 0.0, 0.0, 1.7400581376953163E9, 0.0, 2025-02-20 13:28:57.695
12.0, -91.67803756380454, -298.45897606387734, 13.456160040572286, -19.638214667327702, 0.0, -0.01600000075995922, 1.008000047877431, 0.0, 0.0, 0.0, 0.0, 0.0, 1.7400581376953678E9, 0.0, 2025-02-20 13:28:57.695
13.0, -51.17492104368284, -273.2071715630591, 7.045971516519785, -158.39972272329032, 0.0, -0.01600000075995922, 1.008000047877431, 0.0, 0.0, 0.0, 0.0, 0.0, 1.7400581376959217E9, 0.0, 2025-02-20 13:28:57.695
13.0, 121.90203905571252, -115.11973048606887, 15.393428217619658, 22.96298572793603, 0.0, -0.01600000075995922, 1.008000047877431, 0.0, 0.0, 0.0, 0.0, 0.0, 1.7400581376960719E9, 0.0, 2025-02-20 13:28:57.696
14.0, 72.31096564326435, -142.62669466016814, 12.44264715258032, 159.93682160507888, 0.0, -0.01600000075995922, 1.008000047877431, 0.0, 0.0, 0.0, 0.0, 0.0, 1.7400581376969612E9, 0.0, 2025-02-20 13:28:57.696
14.0, -87.77732191001996, -295.9644627934322, 8.972019993700087, -20.10196226183325, 0.0, -0.01600000075995922, 1.008000047877431, 0.0, 0.0, 0.0, 0.0, 0.0, 1.7400581376970823E9, 0.0, 2025-02-20 13:28:57.697
15.0, -49.83977675950155, -262.4175601908937, 7.846310107037425, -163.8150978591293, 0.0, -0.01600000075995922, 1.008000047877431, 0.0, 0.0, 0.0, 0.0, 0.0, 1.7400581377250772E9, 0.0, 2025-02-20 13:28:57.725
15.0, 113.65555965341628, -111.97821452328935, 11.747025760821998, 20.51335125695914, 0.0, -0.01600000075995922, 1.008000047877431, 0.0, 0.0, 0.0, 0.0, 0.0, 1.7400581377251809E9, 0.0, 2025-02-20 13:28:57.725
16.0, 81.39144273567945, -135.58820294355974, 16.15262790862471, 156.47367424611002, 0.0, -0.01600000075995922, 1.008000047877431, 0.0, 0.0, 0.0, 0.0, 0.0, 1.740058137725516E9, 0.0, 2025-02-20 13:28:57.725
16.0, -85.51842233678326, -298.30938006564975, 10.187487479299307, -24.21211231313646, 0.0, -0.01600000075995922, 1.008000047877431, 0.0, 0.0, 0.0, 0.0, 0.0, 1.740058137725566E9, 0.0, 2025-02-20 13:28:57.725
17.0, -48.11942277988419, -269.2802766095847, 10.131388979963958, -163.17557496670634, 0.0, -0.01600000075995922, 1.008000047877431, 0.0, 0.0, 0.0, 0.0, 0.0, 1.740058137755158E9, 0.0, 2025-02-20 13:28:57.755
17.0, 113.58076165430248, -116.51097326958552, 13.388841841369867, 23.935359716415405, 0.0, -0.01600000075995922, 1.008000047877431, 0.0, 0.0, 0.0, 0.0, 0.0, 1.740058137755286E9, 0.0, 2025-02-20 13:28:57.755
18.0, 78.45562127046287, -140.6445476836525, 14.413574429228902, 160.25471310131252, 0.0, -0.01600000075995922, 1.008000047877431, 0.0, 0.0, 0.0, 0.0, 0.0, 1.7400581377554803E9, 0.0, 2025-02-20 13:28:57.755
18.0, -76.89421303896233, -283.327340843156, 12.47630625218153, -25.536036897450686, 0.0, -0.01600000075995922, 1.008000047877431, 0.0, 0.0, 0.0, 0.0, 0.0, 1.740058137755576E9, 0.0, 2025-02-20 13:28:57.755
19.0, -46.56362439831719, -274.69939164537936, 8.325017301365733, -153.75476697832346, 0.0, -0.01600000075995922, 1.008000047877431, 0.0, 0.0, 0.0, 0.0, 0.0, 1.7400581377561777E9, 0.0, 2025-02-20 13:28:57.756
19.0, 108.06066931970417, -122.55091169802472, 14.398614829406142, 32.12200071942061, 0.0, -0.01600000075995922, 1.008000047877431, 0.0, 0.0, 0.0, 0.0, 0.0, 1.740058137756266E9, 0.0, 2025-02-20 13:28:57.756
20.0, 76.35005759540945, -136.4184607337229, 13.332743342034519, 161.81051148287952, 0.0, -0.01600000075995922, 1.008000047877431, 0.0, 0.0, 0.0, 0.0, 0.0, 1.740058137757414E9, 0.0, 2025-02-20 13:28:57.757
20.0, -73.13561358349398, -292.505055334419, 12.293051154352725, -23.969018816016614, 0.0, -0.01600000075995922, 1.008000047877431, 0.0, 0.0, 0.0, 0.0, 0.0, 1.7400581377575016E9, 0.0, 2025-02-20 13:28:57.757
21.0, -42.225340449716896, -272.0216232771054, 10.221146578900516, -155.96878775209188, 0.0, -0.01600000075995922, 1.008000047877431, 0.0, 0.0, 0.0, 0.0, 0.0, 1.7400581377849543E9, 0.0, 2025-02-20 13:28:57.784
21.0, 98.65856083109975, -128.9685800219886, 12.05369755718857, 33.89845319837332, 0.0, -0.01600000075995922, 1.008000047877431, 0.0, 0.0, 0.0, 0.0, 0.0, 1.7400581377850947E9, 0.0, 2025-02-20 13:28:57.785
22.0, 70.14930346887559, -142.17416676552966, 13.108349344693124, 160.80073849484324, 0.0, -0.01600000075995922, 1.008000047877431, 0.0, 0.0, 0.0, 0.0, 0.0, 1.740058137785582E9, 0.0, 2025-02-20 13:28:57.785
22.0, -73.44228537986055, -279.5388221880421, 9.192674091085792, -26.792643282562494, 0.0, -0.01600000075995922, 1.008000047877431, 0.0, 0.0, 0.0, 0.0, 0.0, 1.7400581377856317E9, 0.0, 2025-02-20 13:28:57.785
23.0, -56.347202682401985, -269.07084221206605, 7.973466705530882, -153.8146053776145, 0.0, -0.01600000075995922, 1.008000047877431, 0.0, 0.0, 0.0, 0.0, 0.0, 1.740058137815596E9, 0.0, 2025-02-20 13:28:57.815
23.0, 93.39652159344405, -134.36525565804914, 15.793597512878478, 28.99544435646385, 0.0, -0.01600000075995922, 1.008000047877431, 0.0, 0.0, 0.0, 0.0, 0.0, 1.7400581378159764E9, 0.0, 2025-02-20 13:28:57.815
24.0, 68.63090408686548, -152.47011134354398, 11.305717566050589, 159.58901090919971, 0.0, -0.01600000075995922, 1.008000047877431, 0.0, 0.0, 0.0, 0.0, 0.0, 1.7400581378169515E9, 0.0, 2025-02-20 13:28:57.816
24.0, -63.92797989258543, -286.016328911297, 12.49126585200429, -30.756937235593796, 0.0, -0.01600000075995922, 1.008000047877431, 0.0, 0.0, 0.0, 0.0, 0.0, 1.7400581378170664E9, 0.0, 2025-02-20 13:28:57.817
25.0, -40.11603687470779, -261.40404730290174, 8.788764895871282, -153.83704477734864, 0.0, -0.01600000075995922, 1.008000047877431, 0.0, 0.0, 0.0, 0.0, 0.0, 1.740058137817237E9, 0.0, 2025-02-20 13:28:57.817
25.0, 86.14485557936132, -140.4538127859123, 16.5640169037506, 33.4982839031145, 0.0, -0.01600000075995922, 1.008000047877431, 0.0, 0.0, 0.0, 0.0, 0.0, 1.7400581378172944E9, 0.0, 2025-02-20 13:28:57.817
26.0, 70.16800296865404, -151.239684258122, 14.761385125108063, 169.3763290932402, 0.0, -0.01600000075995922, 1.008000047877431, 0.0, 0.0, 0.0, 0.0, 0.0, 1.740058137817359E9, 0.0, 2025-02-20 13:28:57.817
26.0, -61.568103020545095, -265.18508615810424, 18.09737588558346, -22.809649829752743, 0.0, -0.01600000075995922, 1.008000047877431, 0.0, 0.0, 0.0, 0.0, 0.0, 1.7400581378174121E9, 0.0, 2025-02-20 13:28:57.817
27.0, -46.90395529428497, -269.9927275511436, 10.191227379254997, -151.41732950601727, 0.0, -0.01600000075995922, 1.008000047877431, 0.0, 0.0, 0.0, 0.0, 0.0, 1.7400581378453848E9, 0.0, 2025-02-20 13:28:57.845
27.0, 84.04303180426359, -144.15444379206747, 17.439153493382037, 43.06868788972497, 0.0, -0.01600000075995922, 1.008000047877431, 0.0, 0.0, 0.0, 0.0, 0.0, 1.7400581378454916E9, 0.0, 2025-02-20 13:28:57.845
28.0, 75.0747517105192, -141.93107326840982, 11.967679858207703, 167.9289878103882, 0.0, -0.01600000075995922, 1.008000047877431, 0.0, 0.0, 0.0, 0.0, 0.0, 1.740058137845942E9, 0.0, 2025-02-20 13:28:57.845
28.0, -58.64724115515128, -275.9447783306241, 9.065517492592335, -29.44423235114664, 0.0, -0.01600000075995922, 1.008000047877431, 0.0, 0.0, 0.0, 0.0, 0.0, 1.7400581378460555E9, 0.0, 2025-02-20 13:28:57.846
29.0, -44.0017929286696, -266.73714463971555, 12.588503250852227, -153.26857998408377, 0.0, -0.01600000075995922, 1.008000047877431, 0.0, 0.0, 0.0, 0.0, 0.0, 1.7400581378750792E9, 0.0, 2025-02-20 13:28:57.875
29.0, 83.2613927135244, -141.4935049735941, 11.571250462904572, 41.47175060864538, 0.0, -0.01600000075995922, 1.008000047877431, 0.0, 0.0, 0.0, 0.0, 0.0, 1.7400581378751311E9, 0.0, 2025-02-20 13:28:57.875
30.0, 68.73936118558049, -147.85507479822263, 11.922801058739424, 164.1180297555402, 0.0, -0.01600000075995922, 1.008000047877431, 0.0, 0.0, 0.0, 0.0, 0.0, 1.7400581378752732E9, 0.0, 2025-02-20 13:28:57.875
30.0, -53.18698721984401, -269.55328930635005, 11.384255465120077, -27.72013847157359, 0.0, -0.01600000075995922, 1.008000047877431, 0.0, 0.0, 0.0, 0.0, 0.0, 1.7400581378753064E9, 0.0, 2025-02-20 13:28:57.875
31.0, -46.713220396544784, -267.8030161270872, 10.718553273007274, -148.39175044186413, 0.0, -0.01600000075995922, 1.008000047877431, 0.0, 0.0, 0.0, 0.0, 0.0, 1.7400581378760724E9, 0.0, 2025-02-20 13:28:57.876
31.0, 77.27007298450917, -152.29059614567086, 13.070950345136225, 43.48381678480655, 0.0, -0.01600000075995922, 1.008000047877431, 0.0, 0.0, 0.0, 0.0, 0.0, 1.7400581378761215E9, 0.0, 2025-02-20 13:28:57.876
32.0, 70.55695256404579, -147.4792148526758, 10.273505178280175, 161.42156188748777, -0.01600000075995922, -0.01600000075995922, 1.008000047877431, 0.0, 0.0, 0.0, 0.0, 0.0, 1.740058137877072E9, 0.0, 2025-02-20 13:28:57.877
32.0, -49.858476259279996, -268.05919927405193, 11.960200058296323, -24.847895305603743, -0.01600000075995922, -0.01600000075995922, 1.008000047877431, 0.0, 0.0, 0.0, 0.0, 0.0, 1.74005813787711E9, 0.0, 2025-02-20 13:28:57.877
33.0, -38.96788758831099, -262.98415503418073, 10.08277028053999, -147.59515175130218, -0.01600000075995922, -0.01600000075995922, 1.008000047877431, 0.0, 0.0, 0.0, 0.0, 0.0, 1.7400581379051428E9, 0.0, 2025-02-20 13:28:57.905
33.0, 72.43064244184643, -154.4429085701704, 13.119569044560194, 41.88687950372696, -0.01600000075995922, -0.01600000075995922, 1.008000047877431, 0.0, 0.0, 0.0, 0.0, 0.0, 1.740058137905226E9, 0.0, 2025-02-20 13:28:57.905
34.0, 67.98390139453113, -152.14847994735464, 9.63024238590151, 164.13672925531864, -0.01600000075995922, -0.01600000075995922, 1.008000047877431, 0.0, 0.0, 0.0, 0.0, 0.0, 1.7400581379059343E9, 0.0, 2025-02-20 13:28:57.905
34.0, -42.04582525184378, -265.042969959788, 10.000492481514812, -32.4959907149896, -0.01600000075995922, -0.01600000075995922, 1.008000047877431, 0.0, 0.0, 0.0, 0.0, 0.0, 1.7400581379060297E9, 0.0, 2025-02-20 13:28:57.906
35.0, -41.911188853438944, -264.21271216962487, 7.491019611246884, -150.61325101554394, -0.01600000075995922, -0.01600000075995922, 1.008000047877431, 0.0, 0.0, 0.0, 0.0, 0.0, 1.740058137935419E9, 0.0, 2025-02-20 13:28:57.935
35.0, 62.194536263123155, -167.85979966120794, 16.593936103396118, 44.904978767968714, -0.01600000075995922, -0.01600000075995922, 1.008000047877431, 0.0, 0.0, 0.0, 0.0, 0.0, 1.7400581379355347E9, 0.0, 2025-02-20 13:28:57.935
36.0, 62.45819920999929, -159.65632910840213, 11.747025760821998, 164.4434010516852, -0.01600000075995922, -0.01600000075995922, 1.008000047877431, 0.0, 0.0, 0.0, 0.0, 0.0, 1.7400581379358485E9, 0.0, 2025-02-20 13:28:57.935
36.0, -47.62014613579959, -263.1823697318323, 11.159861467778683, -32.23419771809131, -0.01600000075995922, -0.01600000075995922, 1.008000047877431, 0.0, 0.0, 0.0, 0.0, 0.0, 1.7400581379359128E9, 0.0, 2025-02-20 13:28:57.935
37.0, -37.78794915229082, -265.4506190549582, 10.254805678501725, -151.70904170256108, -0.01600000075995922, -0.01600000075995922, 1.008000047877431, 0.0, 0.0, 0.0, 0.0, 0.0, 1.7400581379361436E9, 0.0, 2025-02-20 13:28:57.936
37.0, 63.09024230251089, -167.99443605961278, 12.109796056523919, 44.067241177894175, -0.01600000075995922, -0.01600000075995922, 1.008000047877431, 0.0, 0.0, 0.0, 0.0, 0.0, 1.7400581379362965E9, 0.0, 2025-02-20 13:28:57.936
38.0, 64.67782983370125, -153.4032163824886, 11.623609062284231, 159.42445531114936, -0.01600000075995922, -0.01600000075995922, 1.008000047877431, 0.0, 0.0, 0.0, 0.0, 0.0, 1.7400581379370644E9, 0.0, 2025-02-20 13:28:57.937
38.0, -41.073451263364404, -252.13096536276862, 8.152981903403997, -37.264363158494234, -0.01600000075995922, -0.01600000075995922, 1.008000047877431, 0.0, 0.0, 0.0, 0.0, 0.0, 1.7400581379371831E9, 0.0, 2025-02-20 13:28:57.937
39.0, -44.68432467058301, -271.2437240863219, 5.680908032692969, -150.2617004197091, -0.01600000075995922, -0.01600000075995922, 1.008000047877431, 0.0, 0.0, 0.0, 0.0, 0.0, 1.7400581379649627E9, 0.0, 2025-02-20 13:28:57.964
39.0, 65.75679097091779, -171.56604051729664, 15.872135411947966, 43.644632482901216, -0.01600000075995922, -0.01600000075995922, 1.008000047877431, 0.0, 0.0, 0.0, 0.0, 0.0, 1.7400581379650476E9, 0.0, 2025-02-20 13:28:57.965
40.0, 72.3296651430428, -145.30633297841996, 16.03295111004263, 158.39972272329032, -0.01600000075995922, -0.01600000075995922, 1.008000047877431, 0.0, 0.0, 0.0, 0.0, 0.0, 1.7400581379658904E9, 0.0, 2025-02-20 13:28:57.965
40.0, -36.94086181232706, -244.5389684527181, 6.391489024274051, -35.30091568175703, -0.01600000075995922, -0.01600000075995922, 1.008000047877431, 0.0, 0.0, 0.0, 0.0, 0.0, 1.7400581379659648E9, 0.0, 2025-02-20 13:28:57.965
41.0, -42.115013401024044, -256.1981065645814, 8.06696420442313, -153.16760268528014, -0.01600000075995922, 0.0, 1.008000047877431, 0.0, 0.0, 0.0, 0.0, 0.0, 1.740058137995039E9, 0.0, 2025-02-20 13:28:57.995
41.0, 58.04885716224089, -168.53298165323213, 14.185440531931818, 47.37705263867974, -0.01600000075995922, 0.0, 1.008000047877431, 0.0, 0.0, 0.0, 0.0, 0.0, 1.7400581379951608E9, 0.0, 2025-02-20 13:28:57.995
42.0, 69.10961128119379, -150.97228141129017, 10.206186979077756, 156.90002284105867, -0.01600000075995922, 0.0, 1.008000047877431, 0.0, 0.0, 0.0, 0.0, 0.0, 1.74005813799533E9, 0.0, 2025-02-20 13:28:57.995
42.0, -29.296506302896887, -240.42133860150352, 8.515752199105918, -35.4991303794086, -0.01600000075995922, 0.0, 1.008000047877431, 0.0, 0.0, 0.0, 0.0, 0.0, 1.7400581379953876E9, 0.0, 2025-02-20 13:28:57.995
43.0, -38.76780294068158, -261.4863251019269, 12.992412446066737, -150.27666001953185, -0.01600000075995922, 0.0, 1.008000047877431, 0.0, 0.0, 0.0, 0.0, 0.0, 1.7400581379960873E9, 0.0, 2025-02-20 13:28:57.996
43.0, 52.21461323136464, -182.30703319003806, 11.720846461132169, 45.00221616681665, -0.01600000075995922, 0.0, 1.008000047877431, 0.0, 0.0, 0.0, 0.0, 0.0, 1.740058137996154E9, 0.0, 2025-02-20 13:28:57.996
44.0, 66.77965360879898, -155.05251226294786, 13.923647535033524, 164.09933025576174, -0.01600000075995922, 0.0, 1.008000047877431, 0.0, 0.0, 0.0, 0.0, 0.0, 1.740058137997024E9, 0.0, 2025-02-20 13:28:57.997
44.0, -23.727795268874615, -233.22203118680045, 6.529865322634578, -41.692404706031084, -0.01600000075995922, 0.0, 1.008000047877431, 0.0, 0.0, 0.0, 0.0, 0.0, 1.7400581379970903E9, 0.0, 2025-02-20 13:28:57.997
45.0, -40.394659421406686, -255.57354327198118, 5.699607532471418, -151.697822002694, -0.01600000075995922, 0.0, 1.008000047877431, 0.0, 0.0, 0.0, 0.0, 0.0, 1.7400581380251923E9, 0.0, 2025-02-20 13:28:58.025
45.0, 37.2213543090038, -183.3654248774983, 12.992412446066737, 51.62931888829917, -0.01600000075995922, 0.0, 1.008000047877431, 0.0, 0.0, 0.0, 0.0, 0.0, 1.7400581380252843E9, 0.0, 2025-02-20 13:28:58.025
46.0, 53.65260476432741, -155.17592896148562, 14.09942283295095, 155.54991895705462, -0.01600000075995922, 0.0, 1.008000047877431, 0.0, 0.0, 0.0, 0.0, 0.0, 1.740058138025648E9, 0.0, 2025-02-20 13:28:58.025
46.0, -23.297706773970276, -230.7162982164882, 8.930881094187498, -40.880846415646374, -0.01600000075995922, 0.0, 1.008000047877431, 0.0, 0.0, 0.0, 0.0, 0.0, 1.7400581380256956E9, 0.0, 2025-02-20 13:28:58.025
47.0, -38.079661348834634, -263.43481297884136, 8.01834550499916, -147.49043455254287, -0.01600000075995922, 0.0, 1.008000047877431, 0.0, 0.0, 0.0, 0.0, 0.0, 1.7400581380549324E9, 0.0, 2025-02-20 13:28:58.054
47.0, 43.98683332884684, -184.4724352643825, 9.64146208576858, 50.23059630487114, -0.01600000075995922, 0.0, 1.008000047877431, 0.0, 0.0, 0.0, 0.0, 0.0, 1.7400581380551221E9, 0.0, 2025-02-20 13:28:58.055
48.0, 71.01322035863996, -156.94490164052695, 9.64146208576858, 152.25132719613612, -0.01600000075995922, 0.0, 1.008000047877431, 0.0, 0.0, 0.0, 0.0, 0.0, 1.7400581380557027E9, 0.0, 2025-02-20 13:28:58.055
48.0, -12.549234301317483, -225.81702927453443, 9.428287788294256, -47.37331273872405, -0.01600000075995922, 0.0, 1.008000047877431, 0.0, 0.0, 0.0, 0.0, 0.0, 1.7400581380561762E9, 0.0, 2025-02-20 13:28:58.056
49.0, -41.4268718091771, -259.6500342236832, 11.062624068930745, -150.07844532188028, -0.01600000075995922, 0.0, 1.008000047877431, 0.0, 0.0, 0.0, 0.0, 0.0, 1.7400581380563276E9, 0.0, 2025-02-20 13:28:58.056
49.0, 43.32113113673404, -191.64930327935144, 17.622408591210842, 47.06664094235748, -0.01600000075995922, 0.0, 1.008000047877431, 0.0, 0.0, 0.0, 0.0, 0.0, 1.7400581380564463E9, 0.0, 2025-02-20 13:28:58.056
50.0, 71.12915725726634, -152.38596359454095, 12.543624451383948, 148.97517483495176, -0.01600000075995922, 0.0, 1.008000047877431, 0.0, 0.0, 0.0, 0.0, 0.0, 1.7400581380573883E9, 0.0, 2025-02-20 13:28:58.057
50.0, -13.805840686429292, -223.40853370307013, 6.511165822856128, -47.78844163380563, -0.01600000075995922, 0.0, 1.008000047877431, 0.0, 0.0, 0.0, 0.0, 0.0, 1.740058138057525E9, 0.0, 2025-02-20 13:28:58.057
51.0, -37.52989605534822, -252.2300727115944, 10.535298175178468, -148.2159751439467, -0.01600000075995922, 0.0, 1.008000047877431, 0.0, 0.0, 0.0, 0.0, 0.0, 1.7400581380848737E9, 0.0, 2025-02-20 13:28:58.084
51.0, 36.09564442234114, -190.2954594953917, 14.88854172360152, 49.677091111429036, -0.01600000075995922, 0.0, 1.008000047877431, 0.0, 0.0, 0.0, 0.0, 0.0, 1.7400581380850005E9, 0.0, 2025-02-20 13:28:58.085
52.0, 66.05785291735083, -156.4437550464645, 11.496452463790774, 152.28498629573733, 0.0, 0.0, 1.008000047877431, 0.0, 0.0, 0.0, 0.0, 0.0, 1.7400581380855236E9, 0.0, 2025-02-20 13:28:58.085
52.0, -9.0225086431019, -214.3018773109652, 13.392581741325557, -42.23843009956181, 0.0, 0.0, 1.008000047877431, 0.0, 0.0, 0.0, 0.0, 0.0, 1.7400581380855627E9, 0.0, 2025-02-20 13:28:58.085
53.0, -33.82739509921521, -258.39716773852706, 9.865856083109975, -149.8465715246275, 0.0, 0.0, 1.008000047877431, 0.0, 0.0, 0.0, 0.0, 0.0, 1.7400581381154628E9, 0.0, 2025-02-20 13:28:58.115
53.0, 26.79825313249603, -199.1552824904211, 16.91182759962976, 52.04818768333644, 0.0, 0.0, 1.008000047877431, 0.0, 0.0, 0.0, 0.0, 0.0, 1.7400581381157124E9, 0.0, 2025-02-20 13:28:58.115
54.0, 67.01900720596313, -151.08447840996087, 9.024378593079746, 153.86322407703847, 0.0, 0.0, 1.008000047877431, 0.0, 0.0, 0.0, 0.0, 0.0, 1.7400581381158006E9, 0.0, 2025-02-20 13:28:58.115
54.0, -4.4074720977805555, -214.08870301349089, 8.194120802916586, -49.88278560899198, 0.0, 0.0, 1.008000047877431, 0.0, 0.0, 0.0, 0.0, 0.0, 1.740058138115904E9, 0.0, 2025-02-20 13:28:58.115
55.0, -37.78420925233513, -262.5634162891656, 9.136575591750443, -152.0344129987061, 0.0, 0.0, 1.008000047877431, 0.0, 0.0, 0.0, 0.0, 0.0, 1.7400581381159427E9, 0.0, 2025-02-20 13:28:58.115
55.0, 28.282993414904922, -209.118375972379, 14.039584433659911, 53.43569056689739, 0.0, 0.0, 1.008000047877431, 0.0, 0.0, 0.0, 0.0, 0.0, 1.7400581381159756E9, 0.0, 2025-02-20 13:28:58.115
56.0, 64.40855703689158, -159.12900321464986, 10.927987670525908, 149.74559422582388, 0.0, 0.0, 1.008000047877431, 0.0, 0.0, 0.0, 0.0, 0.0, 1.7400581381168597E9, 0.0, 2025-02-20 13:28:58.116
56.0, 9.688210835214704, -205.73376651247963, 12.251912254840136, -51.77891488652676, 0.0, 0.0, 1.008000047877431, 0.0, 0.0, 0.0, 0.0, 0.0, 1.7400581381169112E9, 0.0, 2025-02-20 13:28:58.116
57.0, -43.03502879012376, -256.36266216263175, 11.720846461132169, -145.96455537062138, 0.0, 0.0, 1.008000047877431, 0.0, 0.0, 0.0, 0.0, 0.0, 1.740058138144878E9, 0.0, 2025-02-20 13:28:58.144
57.0, 19.804640215355903, -203.69552103662863, 16.777191201224923, 56.954936425201595, 0.0, 0.0, 1.008000047877431, 0.0, 0.0, 0.0, 0.0, 0.0, 1.740058138144941E9, 0.0, 2025-02-20 13:28:58.144
58.0, 67.86422459594905, -149.12477083317935, 14.005925334058702, 150.83016521297395, 0.0, 0.0, 1.008000047877431, 0.0, 0.0, 0.0, 0.0, 0.0, 1.7400581381455567E9, 0.0, 2025-02-20 13:28:58.145
58.0, 7.1450788653455675, -205.75620591221377, 14.544470927678049, -51.84997298568487, 0.0, 0.0, 1.008000047877431, 0.0, 0.0, 0.0, 0.0, 0.0, 1.7400581381456065E9, 0.0, 2025-02-20 13:28:58.145
59.0, -38.468610944226384, -264.1229545706883, 12.023778357543051, -140.96804902981967, 0.0, 0.0, 1.008000047877431, 0.0, 0.0, 0.0, 0.0, 0.0, 1.7400581381755445E9, 0.0, 2025-02-20 13:28:58.175
59.0, 17.138091546949, -202.91014204593375, 17.113782197237015, 59.415790596045554, 0.0, 0.0, 1.008000047877431, 0.0, 0.0, 0.0, 0.0, 0.0, 1.740058138175809E9, 0.0, 2025-02-20 13:28:58.175
60.0, 67.52389369998127, -151.02464001066983, 11.631088862195611, 143.26060770265758, 0.0, 0.0, 0.9920000471174717, 0.0, 0.0, 0.0, 0.0, 0.0, 1.740058138176053E9, 0.0, 2025-02-20 13:28:58.176
60.0, 9.755529034417123, -205.4121351162903, 12.644601750187576, -53.708703263662755, 0.0, 0.0, 0.9920000471174717, 0.0, 0.0, 0.0, 0.0, 0.0, 1.7400581381761277E9, 0.0, 2025-02-20 13:28:58.176
61.0, -30.749457435682416, -248.24707925878465, 12.203293555416167, -141.89554421883076, 0.0, 0.0, 0.9920000471174717, 0.0, 0.0, 0.0, 0.0, 0.0, 1.7400581381763496E9, 0.0, 2025-02-20 13:28:58.176
61.0, 18.66023082891479, -211.6016695429571, 10.572697174735367, 52.42591757886112, 0.0, 0.0, 0.9920000471174717, 0.0, 0.0, 0.0, 0.0, 0.0, 1.7400581381764019E9, 0.0, 2025-02-20 13:28:58.176
62.0, 70.2914196671918, -152.6290570916608, 15.352289318107069, 147.26604055520147, 0.0, 0.0, 0.9920000471174717, 0.0, 0.0, 0.0, 0.0, 0.0, 1.7400581381768708E9, 0.0, 2025-02-20 13:28:58.176
62.0, 18.409657531883568, -195.22838753694668, 12.551104251295328, -53.50300876609981, 0.0, 0.0, 0.9920000471174717, 0.0, 0.0, 0.0, 0.0, 0.0, 1.7400581381769123E9, 0.0, 2025-02-20 13:28:58.176
63.0, -25.053589803166687, -258.65522083546966, 9.62650248594582, -144.63315098639578, 0.0, 0.0, 0.9920000471174717, 0.0, 0.0, 0.0, 0.0, 0.0, 1.7400581382061102E9, 0.0, 2025-02-20 13:28:58.206
63.0, 10.896198520902544, -215.88385499222204, 15.636521714739501, 64.4384762365371, 0.0, 0.0, 0.9920000471174717, 0.0, 0.0, 0.0, 0.0, 0.0, 1.7400581382064211E9, 0.0, 2025-02-20 13:28:58.206
64.0, 61.92526346631348, -153.54159268084913, 11.754505560733378, 151.24529410805553, 0.0, 0.0, 0.9920000471174717, 0.0, 0.0, 0.0, 0.0, 0.0, 1.7400581382068017E9, 0.0, 2025-02-20 13:28:58.206
64.0, 24.37479796120897, -192.8498111651279, 11.474013064056635, -55.89280483778566, 0.0, 0.0, 0.9920000471174717, 0.0, 0.0, 0.0, 0.0, 0.0, 1.740058138206852E9, 0.0, 2025-02-20 13:28:58.206
65.0, -38.457391244359314, -263.4609922785312, 16.47051940485835, -145.05201978143305, 0.0, 0.0, 0.9920000471174717, 0.0, 0.0, 0.0, 0.0, 0.0, 1.7400581382352717E9, 0.0, 2025-02-20 13:28:58.235
65.0, 2.8703732159920037, -220.54003043705598, 14.368695629760623, 66.94046930689365, 0.0, 0.0, 0.9920000471174717, 0.0, 0.0, 0.0, 0.0, 0.0, 1.7400581382354355E9, 0.0, 2025-02-20 13:28:58.235
66.0, 69.4050633776933, -155.4863406578079, 11.395475164987147, 148.3992302417755, 0.0, 0.0, 0.9920000471174717, 0.0, 0.0, 0.0, 0.0, 0.0, 1.740058138235509E9, 0.0, 2025-02-20 13:28:58.235
66.0, 22.74046168057248, -189.55869920412078, 14.626748726703227, -54.127572058700025, 0.0, 0.0, 0.9920000471174717, 0.0, 0.0, 0.0, 0.0, 0.0, 1.7400581382355447E9, 0.0, 2025-02-20 13:28:58.235
67.0, -33.69649860076606, -255.18459367658943, 10.04537128098309, -133.78744111489505, 0.0, 0.0, 0.9920000471174717, 0.0, 0.0, 0.0, 0.0, 0.0, 1.7400581382359822E9, 0.0, 2025-02-20 13:28:58.235
67.0, -6.210103876423091, -224.31732939230278, 13.527218139730394, 70.35499796643853, 0.0, 0.0, 0.9920000471174717, 0.0, 0.0, 0.0, 0.0, 0.0, 1.7400581382360392E9, 0.0, 2025-02-20 13:28:58.236
68.0, 61.16980367526412, -156.6270101442933, 12.45760675240308, 148.78070003725588, 0.0, 0.0, 0.9920000471174717, 0.0, 0.0, 0.0, 0.0, 0.0, 1.7400581382377973E9, 0.0, 2025-02-20 13:28:58.237
68.0, 29.363824502099305, -190.16830289689824, 16.11148900911212, -50.79158129822463, 0.0, 0.0, 0.9920000471174717, 0.0, 0.0, 0.0, 0.0, 0.0, 1.7400581382378817E9, 0.0, 2025-02-20 13:28:58.237
69.0, -37.3503808574751, -259.2610846282914, 10.43806077633053, -127.11919949389994, 0.0, 0.0, 0.9920000471174717, 0.0, 0.0, 0.0, 0.0, 0.0, 1.740058138264851E9, 0.0, 2025-02-20 13:28:58.264
69.0, 2.1560523244552314, -232.01030360115692, 14.024624833837152, 79.51027305796742, 0.0, 0.0, 0.9920000471174717, 0.0, 0.0, 0.0, 0.0, 0.0, 1.7400581382649117E9, 0.0, 2025-02-20 13:28:58.264
70.0, 60.22734888643026, -152.91702938824892, 15.393428217619658, 153.2162213847041, 0.0, 0.0, 1.008000047877431, 0.0, 0.0, 0.0, 0.0, 0.0, 1.7400581382659867E9, 0.0, 2025-02-20 13:28:58.265
70.0, 31.832158472854644, -174.19145028619096, 11.28701806627214, -53.64886486437172, 0.0, 0.0, 1.008000047877431, 0.0, 0.0, 0.0, 0.0, 0.0, 1.740058138266062E9, 0.0, 2025-02-20 13:28:58.266
71.0, -35.49165057949722, -258.711319334805, 14.540731027722359, -130.05502095911652, 0.0, 0.0, 1.008000047877431, 0.0, 0.0, 0.0, 0.0, 0.0, 1.7400581382948892E9, 0.0, 2025-02-20 13:28:58.294
71.0, -13.992835684213787, -240.08100770553574, 16.223686007782817, 75.47118110582232, 0.0, 0.0, 1.008000047877431, 0.0, 0.0, 0.0, 0.0, 0.0, 1.7400581382949502E9, 0.0, 2025-02-20 13:28:58.294
72.0, 72.61389753967524, -156.01366655156016, 12.416467852890491, 151.9222160000354, 0.0, 0.0, 1.008000047877431, 0.0, 0.0, 0.0, 0.0, 0.0, 1.7400581382953193E9, 0.0, 2025-02-20 13:28:58.295
72.0, 40.78547896677628, -169.43803744250908, 12.592243150807917, -52.571773677133024, 0.0, 0.0, 1.008000047877431, 0.0, 0.0, 0.0, 0.0, 0.0, 1.7400581382953768E9, 0.0, 2025-02-20 13:28:58.295
73.0, -34.814728687517345, -260.39801421482116, 11.470273164100945, -136.64846458099782, 0.0, 0.0, 1.008000047877431, 0.0, 0.0, 0.0, 0.0, 0.0, 1.740058138297334E9, 0.0, 2025-02-20 13:28:58.297
73.0, -16.868818750139326, -245.7656556381844, 11.930280858650804, 72.19128884468228, 0.0, 0.0, 1.008000047877431, 0.0, 0.0, 0.0, 0.0, 0.0, 1.740058138297402E9, 0.0, 2025-02-20 13:28:58.297
74.0, 63.11455165222287, -152.99182738736272, 14.144301632419229, 146.8883106596768, 0.0, 0.0, 1.008000047877431, 0.0, 0.0, 0.0, 0.0, 0.0, 1.7400581382975433E9, 0.0, 2025-02-20 13:28:58.297
74.0, 37.75616000266746, -175.04414747608826, 11.791904560290277, -58.903424302116036, 0.0, 0.0, 1.008000047877431, 0.0, 0.0, 0.0, 0.0, 0.0, 1.7400581382975943E9, 0.0, 2025-02-20 13:28:58.297
75.0, -38.012343149632215, -273.94393185433, 12.775498248636723, -137.44880317151546, 0.0, 0.0, 1.008000047877431, 0.0, 0.0, 0.0, 0.0, 0.0, 1.7400581383254404E9, 0.0, 2025-02-20 13:28:58.325
75.0, -16.479869154747576, -248.11057291040197, 16.06287030968815, 67.71836849767715, 0.0, 0.0, 1.008000047877431, 0.0, 0.0, 0.0, 0.0, 0.0, 1.7400581383259647E9, 0.0, 2025-02-20 13:28:58.325
76.0, 63.05845315288752, -156.42505554668605, 13.085909944958985, 137.74425526801497, 0.0, 0.0, 1.008000047877431, 0.0, 0.0, 0.0, 0.0, 0.0, 1.7400581383262205E9, 0.0, 2025-02-20 13:28:58.326
76.0, 43.13413613894954, -165.2493494921364, 8.740146196447313, -72.55031924042851, 0.0, 0.0, 1.008000047877431, 0.0, 0.0, 0.0, 0.0, 0.0, 1.7400581383264112E9, 0.0, 2025-02-20 13:28:58.326
77.0, -35.214897982776165, -254.95271987933666, 11.369295865297318, -136.85041917860508, 0.0, 0.0, 1.008000047877431, 0.0, 0.0, 0.0, 0.0, 0.0, 1.7400581383552291E9, 0.0, 2025-02-20 13:28:58.355
77.0, -21.16970369918272, -248.81741400202736, 10.44554057624191, 72.07909184601158, 0.0, 0.0, 1.008000047877431, 0.0, 0.0, 0.0, 0.0, 0.0, 1.7400581383554487E9, 0.0, 2025-02-20 13:28:58.355
78.0, 66.55899951141328, -152.49816059321165, 11.100023068487644, 135.51901479437947, 0.0, 0.0, 1.008000047877431, 0.0, 0.0, 0.0, 0.0, 0.0, 1.7400581383555644E9, 0.0, 2025-02-20 13:28:58.355
78.0, 52.326810230035335, -160.84748724428937, 12.704440149478614, -68.91513648349792, 0.0, 0.0, 1.008000047877431, 0.0, 0.0, 0.0, 0.0, 0.0, 1.7400581383556023E9, 0.0, 2025-02-20 13:28:58.355
79.0, -41.35581371001899, -256.9348668558523, 11.197260467335582, -133.66776431631297, 0.0, 0.0, 1.008000047877431, 0.0, 0.0, 0.0, 0.0, 0.0, 1.7400581383560505E9, 0.0, 2025-02-20 13:28:58.356
79.0, -17.57191994180903, -252.6994301560335, 12.969973046332598, 70.7738667614758, 0.0, 0.0, 1.008000047877431, 0.0, 0.0, 0.0, 0.0, 0.0, 1.7400581383561044E9, 0.0, 2025-02-20 13:28:58.356
80.0, 57.20550972223282, -155.62097705621272, 14.047064233571291, 128.7647554744035, 0.0, 0.0, 0.9920000471174717, 0.0, 0.0, 0.0, 0.0, 0.0, 1.7400581383571184E9, 0.0, 2025-02-20 13:28:58.357
80.0, 56.68005377845839, -148.13743724487722, 11.152381667867303, -77.1466562859714, 0.0, 0.0, 0.9920000471174717, 0.0, 0.0, 0.0, 0.0, 0.0, 1.740058138357287E9, 0.0, 2025-02-20 13:28:58.357
81.0, -28.94308575708419, -246.00874913530424, 8.298838001675904, -142.9576758062467, 0.0, -0.01600000075995922, 0.9920000471174717, 0.0, 0.0, 0.0, 0.0, 0.0, 1.7400581383852036E9, 0.0, 2025-02-20 13:28:58.385
81.0, -29.31707575265318, -252.85650595417246, 15.064317021518946, 68.48130808863789, 0.0, -0.01600000075995922, 0.9920000471174717, 0.0, 0.0, 0.0, 0.0, 0.0, 1.7400581383853352E9, 0.0, 2025-02-20 13:28:58.385
82.0, 75.47305105580017, -144.83136568404734, 14.967079622671008, 135.70974969211966, -0.01600000075995922, -0.01600000075995922, 0.9920000471174717, 0.0, 0.0, 0.0, 0.0, 0.0, 1.7400581383855877E9, 0.0, 2025-02-20 13:28:58.385
82.0, 64.24026153888553, -148.59931488940492, 8.276398601941764, -71.43582905363292, -0.01600000075995922, -0.01600000075995922, 0.9920000471174717, 0.0, 0.0, 0.0, 0.0, 0.0, 1.7400581383856404E9, 0.0, 2025-02-20 13:28:58.385
83.0, -32.80827236128971, -256.76657135784626, 11.414174664765596, -131.2817081445828, -0.01600000075995922, -0.01600000075995922, 0.9920000471174717, 0.0, 0.0, 0.0, 0.0, 0.0, 1.7400581384150991E9, 0.0, 2025-02-20 13:28:58.415
83.0, -37.393389706965536, -263.44603267870843, 16.317183506675065, 77.92081557679921, -0.01600000075995922, -0.01600000075995922, 0.9920000471174717, 0.0, 0.0, 0.0, 0.0, 0.0, 1.74005813841524E9, 0.0, 2025-02-20 13:28:58.415
84.0, 66.30094641447067, -155.37975350907072, 10.09025008045137, 135.6947900922969, -0.01600000075995922, -0.01600000075995922, 0.9920000471174717, 0.0, 0.0, 0.0, 0.0, 0.0, 1.740058138415375E9, 0.0, 2025-02-20 13:28:58.415
84.0, 61.530704020988196, -143.44199285050854, 11.500192363746464, -71.57046545203775, -0.01600000075995922, -0.01600000075995922, 0.9920000471174717, 0.0, 0.0, 0.0, 0.0, 0.0, 1.7400581384154568E9, 0.0, 2025-02-20 13:28:58.415
85.0, -35.52530967909843, -265.59647515323013, 10.576437074691057, -130.70576355140656, -0.01600000075995922, -0.01600000075995922, 0.9920000471174717, 0.0, 0.0, 0.0, 0.0, 0.0, 1.740058138416284E9, 0.0, 2025-02-20 13:28:58.416
85.0, -42.12249320093542, -272.0178833771497, 13.646894938312471, 78.14146967418492, -0.01600000075995922, -0.01600000075995922, 0.9920000471174717, 0.0, 0.0, 0.0, 0.0, 0.0, 1.7400581384163668E9, 0.0, 2025-02-20 13:28:58.416
86.0, 67.46592525066808, -160.47349724872038, 12.05743745714426, 140.1415311396122, -0.01600000075995922, -0.01600000075995922, 0.9920000471174717, 0.0, 0.0, 0.0, 0.0, 0.0, 1.7400581384170077E9, 0.0, 2025-02-20 13:28:58.417
86.0, 64.39359743706882, -146.0487031196244, 9.884555582888424, -73.34317803103477, -0.01600000075995922, -0.01600000075995922, 0.9920000471174717, 0.0, 0.0, 0.0, 0.0, 0.0, 1.740058138417097E9, 0.0, 2025-02-20 13:28:58.417
87.0, -41.61947665689513, -258.3036702396348, 8.399815300479531, -130.16347805783153, -0.01600000075995922, -0.01600000075995922, 0.9920000471174717, 0.0, 0.0, 0.0, 0.0, 0.0, 1.7400581384449666E9, 0.0, 2025-02-20 13:28:58.444
87.0, -49.106756368186325, -283.04310844652355, 13.65811463817954, 77.0008001876995, -0.01600000075995922, -0.01600000075995922, 0.9920000471174717, 0.0, 0.0, 0.0, 0.0, 0.0, 1.7400581384450438E9, 0.0, 2025-02-20 13:28:58.445
88.0, 64.52449393551797, -152.32051534531638, 11.926540958695114, 136.61106558144093, -0.01600000075995922, -0.01600000075995922, 0.9920000471174717, 0.0, 0.0, 0.0, 0.0, 0.0, 1.7400581384456377E9, 0.0, 2025-02-20 13:28:58.445
88.0, 75.13085020985454, -139.5337973968126, 5.5761908339336514, -72.0342130465433, -0.01600000075995922, -0.01600000075995922, 0.9920000471174717, 0.0, 0.0, 0.0, 0.0, 0.0, 1.740058138445767E9, 0.0, 2025-02-20 13:28:58.445
89.0, -32.92794915987179, -264.8671946618706, 12.820377048105001, -127.34733339119703, -0.01600000075995922, -0.01600000075995922, 0.9920000471174717, 0.0, 0.0, 0.0, 0.0, 0.0, 1.7400581384750314E9, 0.0, 2025-02-20 13:28:58.475
89.0, -50.359622853342444, -276.8086952203885, 15.66644091438502, 81.98234692867845, -0.01600000075995922, -0.01600000075995922, 0.9920000471174717, 0.0, 0.0, 0.0, 0.0, 0.0, 1.7400581384751315E9, 0.0, 2025-02-20 13:28:58.475
90.0, 66.6973758097738, -143.95809904439375, 12.236952655017376, 133.49572891835123, -0.01600000075995922, -0.01600000075995922, 1.008000047877431, 0.0, 0.0, 0.0, 0.0, 0.0, 1.7400581384754393E9, 0.0, 2025-02-20 13:28:58.475
