%OpenBCI Raw EXG Data
%Number of channels = 4
%Sample Rate = 200 Hz
%Board = OpenBCI_GUI$BoardGanglionNative
Sample Index, EXG Channel 0, EXG Channel 1, EXG Channel 2, EXG Channel 3, Accel Channel 0, Accel Channel 1, Accel Channel 2, Other, Other, Other, Other, Other, Timestamp, Marker Channel, Timestamp (Formatted)
0.0, 6.107256627641618, 307.25335080968216, 14.140561732463539, 88.62627919996157, 0.0, 0.0, 0.0, 0.0, 0.0, 0.0, 0.0, 0.0, 1.7398118961877105E9, 0.0, 2025-02-17 17:04:56.187
1.0, 7.9061485063284636, 217.48079227330163, 19.163247372955084, 319.59876056341454, 0.0, -0.01600000075995922, 0.0, 0.0, 0.0, 0.0, 0.0, 0.0, 1.7398118961880589E9, 0.0, 2025-02-17 17:04:56.188
1.0, 4.734713343903422, 291.0352746518329, 13.68803383782506, 415.8619154728949, 0.0, -0.01600000075995922, 0.0, 0.0, 0.0, 0.0, 0.0, 0.0, 1.7398118961881168E9, 0.0, 2025-02-17 17:04:56.188
2.0, 2.980700264684856, 335.80935692135245, 9.809757583774626, 176.57937640789896, 0.0, -0.01600000075995922, 0.0, 0.0, 0.0, 0.0, 0.0, 0.0, 1.7398118962178512E9, 0.0, 2025-02-17 17:04:56.217
2.0, 10.722293172962964, 308.25938389776275, 13.594536338932812, 97.57211989397183, 0.0, -0.01600000075995922, 0.0, 0.0, 0.0, 0.0, 0.0, 0.0, 1.7398118962179065E9, 0.0, 2025-02-17 17:04:56.217
3.0, 9.802277783863246, 240.7990684970282, 15.011958422139287, 332.33685981249437, 0.0, -0.01600000075995922, 0.0, 0.0, 0.0, 0.0, 0.0, 0.0, 1.7398118962180784E9, 0.0, 2025-02-17 17:04:56.218
3.0, 6.268072325736284, 297.4005843764171, 11.597429762594402, 405.307917797938, 0.0, -0.01600000075995922, 0.0, 0.0, 0.0, 0.0, 0.0, 0.0, 1.7398118962181118E9, 0.0, 2025-02-17 17:04:56.218
4.0, 0.2692727968096733, 330.0760902892798, 9.420807988382876, 631.9178058630787, 0.0, -0.01600000075995922, 0.0, 0.0, 0.0, 0.0, 0.0, 0.0, 1.7398118962185814E9, 0.0, 2025-02-17 17:04:56.218
4.0, 6.301731425337493, 330.3491029860452, 14.417314329184592, 547.9252627082169, 0.0, -0.01600000075995922, 0.0, 0.0, 0.0, 0.0, 0.0, 0.0, 1.7398118962186108E9, 0.0, 2025-02-17 17:04:56.218
5.0, 11.29823776613921, 252.05429741367698, 18.17965368460864, 788.7000218555331, 0.0, -0.01600000075995922, 0.0, 0.0, 0.0, 0.0, 0.0, 0.0, 1.7398118962192757E9, 0.0, 2025-02-17 17:04:56.219
5.0, 3.2761523611843586, 303.03474365966395, 10.367002677172422, 862.8154892274179, 0.0, -0.01600000075995922, 0.0, 0.0, 0.0, 0.0, 0.0, 0.0, 1.7398118962193227E9, 0.0, 2025-02-17 17:04:56.219
6.0, -0.602123892866075, 376.7182525866665, 5.946440929546952, 627.2616304182447, 0.0, -0.01600000075995922, 0.0, 0.0, 0.0, 0.0, 0.0, 0.0, 1.7398118962474136E9, 0.0, 2025-02-17 17:04:56.247
6.0, 6.488726423121989, 377.3802148788236, 12.745579048991203, 550.7713265744969, 0.0, -0.01600000075995922, 0.0, 0.0, 0.0, 0.0, 0.0, 0.0, 1.739811896247447E9, 0.0, 2025-02-17 17:04:56.247
7.0, 12.244432454928756, 281.09649051958695, 15.25879181921482, 316.0121965059079, 0.0, -0.01600000075995922, 0.0, 0.0, 0.0, 0.0, 0.0, 0.0, 1.7398118962481215E9, 0.0, 2025-02-17 17:04:56.248
7.0, 7.734113108366728, 340.7983834622428, 11.518891863524914, 416.47899896558374, 0.0, -0.01600000075995922, 0.0, 0.0, 0.0, 0.0, 0.0, 0.0, 1.739811896248175E9, 0.0, 2025-02-17 17:04:56.248
8.0, 3.975513652898371, 373.2420155778527, 6.698160820640624, 175.80147721711546, 0.0, -0.01600000075995922, 0.0, 0.0, 0.0, 0.0, 0.0, 0.0, 1.7398118962774348E9, 0.0, 2025-02-17 17:04:56.277
8.0, 10.662454773671925, 362.6300494535826, 11.560030763037503, 103.83271241979674, 0.0, -0.01600000075995922, 0.0, 0.0, 0.0, 0.0, 0.0, 0.0, 1.7398118962774792E9, 0.0, 2025-02-17 17:04:56.277
9.0, 11.447833764366806, 290.39014190947637, 13.602016138844192, -137.33286627288908, 0.0, -0.01600000075995922, 0.0, 0.0, 0.0, 0.0, 0.0, 0.0, 1.7398118962779827E9, 0.0, 2025-02-17 17:04:56.277
9.0, 4.83943054266274, 339.9456862723455, 10.08277028053999, -47.865109582897276, 0.0, -0.01600000075995922, 0.0, 0.0, 0.0, 0.0, 0.0, 0.0, 1.7398118962780132E9, 0.0, 2025-02-17 17:04:56.278
10.0, 3.870796454139054, 390.39693667460233, 8.369896100834012, 193.32664840947837, 0.0, -0.01600000075995922, 0.9760000463575125, 0.0, 0.0, 0.0, 0.0, 0.0, 1.7398118962784665E9, 0.0, 2025-02-17 17:04:56.278
10.0, 9.196413991041481, 381.18743303371593, 16.48547900468111, 130.74129260098562, 0.0, -0.01600000075995922, 0.9760000463575125, 0.0, 0.0, 0.0, 0.0, 0.0, 1.7398118962784855E9, 0.0, 2025-02-17 17:04:56.278
11.0, 13.66185453813523, 317.47823728853837, 14.047064233571291, 372.06207714183256, 0.0, -0.01600000075995922, 0.9760000463575125, 0.0, 0.0, 0.0, 0.0, 0.0, 1.7398118962791457E9, 0.0, 2025-02-17 17:04:56.279
11.0, 6.02871872857213, 367.70696364343166, 10.770911872386932, 444.96581692807376, 0.0, -0.01600000075995922, 0.9760000463575125, 0.0, 0.0, 0.0, 0.0, 0.0, 1.7398118962791636E9, 0.0, 2025-02-17 17:04:56.279
12.0, 0.6582223922014236, 419.5008381297812, 5.796844931319356, 683.0945968567394, -0.01600000075995922, -0.01600000075995922, 0.9760000463575125, 0.0, 0.0, 0.0, 0.0, 0.0, 1.7398118963074725E9, 0.0, 2025-02-17 17:04:56.307
12.0, 7.158168515190482, 437.4261786174029, 17.27085799537599, 593.6866785660386, -0.01600000075995922, -0.01600000075995922, 0.9760000463575125, 0.0, 0.0, 0.0, 0.0, 0.0, 1.739811896307514E9, 0.0, 2025-02-17 17:04:56.307
13.0, 10.09398998040706, 388.5120270969346, 17.379315094090998, 827.0863550007343, -0.01600000075995922, -0.01600000075995922, 0.9760000463575125, 0.0, 0.0, 0.0, 0.0, 0.0, 1.7398118963078432E9, 0.0, 2025-02-17 17:04:56.307
13.0, 5.714567132294178, 434.87743679760024, 9.043078092858195, 906.015073615592, -0.01600000075995922, -0.01600000075995922, 0.9760000463575125, 0.0, 0.0, 0.0, 0.0, 0.0, 1.7398118963078756E9, 0.0, 2025-02-17 17:04:56.307
14.0, 2.098083875142038, 458.4500262183137, 12.90639474708587, 1136.2564045377076, -0.01600000075995922, -0.01600000075995922, 0.9760000463575125, 0.0, 0.0, 0.0, 0.0, 0.0, 1.73981189633761E9, 0.0, 2025-02-17 17:04:56.337
14.0, 8.336237001232803, 489.67071104841307, 14.256498631089926, 1057.3912642220967, -0.01600000075995922, -0.01600000075995922, 0.9760000463575125, 0.0, 0.0, 0.0, 0.0, 0.0, 1.7398118963378491E9, 0.0, 2025-02-17 17:04:56.337
15.0, 7.274105413816869, 442.3871559086256, 16.586456303484738, 822.9425458498299, -0.01600000075995922, -0.01600000075995922, 0.9760000463575125, 0.0, 0.0, 0.0, 0.0, 0.0, 1.7398118963380408E9, 0.0, 2025-02-17 17:04:56.338
15.0, 4.611296645365655, 455.97982229758054, 11.28327816631645, 907.5259931976907, -0.01600000075995922, -0.01600000075995922, 0.9760000463575125, 0.0, 0.0, 0.0, 0.0, 0.0, 1.7398118963380833E9, 0.0, 2025-02-17 17:04:56.338
16.0, 1.4361215829849243, 484.84437015559524, 9.26747209019959, 667.1439235457219, -0.01600000075995922, -0.01600000075995922, 0.9760000463575125, 0.0, 0.0, 0.0, 0.0, 0.0, 1.7398118963386536E9, 0.0, 2025-02-17 17:04:56.338
16.0, 9.951873782090843, 531.9409302975982, 9.24877259042114, 583.297236489132, -0.01600000075995922, -0.01600000075995922, 0.9760000463575125, 0.0, 0.0, 0.0, 0.0, 0.0, 1.7398118963386953E9, 0.0, 2025-02-17 17:04:56.338
17.0, 10.913028070703149, 475.898529461585, 13.70673333760351, 813.8919879570603, -0.01600000075995922, -0.01600000075995922, 0.9760000463575125, 0.0, 0.0, 0.0, 0.0, 0.0, 1.7398118963393745E9, 0.0, 2025-02-17 17:04:56.339
17.0, 6.959953817538917, 489.8464863463305, 12.49874565191567, 910.2935191649012, -0.01600000075995922, -0.01600000075995922, 0.9760000463575125, 0.0, 0.0, 0.0, 0.0, 0.0, 1.7398118963394382E9, 0.0, 2025-02-17 17:04:56.339
18.0, 0.7405001912266016, 507.7493874342181, 9.888295482844114, 1146.4738112166524, -0.01600000075995922, -0.01600000075995922, 0.9760000463575125, 0.0, 0.0, 0.0, 0.0, 0.0, 1.7398118963677545E9, 0.0, 2025-02-17 17:04:56.367
18.0, 13.467379740439355, 551.4688179162331, 18.280630983412266, 1052.405977581162, -0.01600000075995922, -0.01600000075995922, 0.9760000463575125, 0.0, 0.0, 0.0, 0.0, 0.0, 1.73981189636782E9, 0.0, 2025-02-17 17:04:56.367
19.0, 10.733512872830033, 500.68097651796415, 15.774898013100028, 1290.7198825576343, -0.01600000075995922, -0.01600000075995922, 0.9760000463575125, 0.0, 0.0, 0.0, 0.0, 0.0, 1.739811896368347E9, 0.0, 2025-02-17 17:04:56.368
19.0, 4.8917891420423985, 505.3128426130861, 11.548811063170433, 1377.2480778824538, -0.01600000075995922, -0.01600000075995922, 0.9760000463575125, 0.0, 0.0, 0.0, 0.0, 0.0, 1.7398118963684185E9, 0.0, 2025-02-17 17:04:56.368
20.0, 4.910488641820848, 518.6605455549434, 13.845109635964036, 1622.1385969310068, -0.01600000075995922, -0.01600000075995922, 0.49600002355873585, 0.0, 0.0, 0.0, 0.0, 0.0, 1.739811896397716E9, 0.0, 2025-02-17 17:04:56.397
20.0, 7.678014609031379, 560.2594527620822, 12.49500575195998, 1535.0307171130553, -0.01600000075995922, -0.01600000075995922, 0.49600002355873585, 0.0, 0.0, 0.0, 0.0, 0.0, 1.7398118963978508E9, 0.0, 2025-02-17 17:04:56.397
21.0, 10.991565969772637, 498.3042700961232, 16.253605207428336, 1779.526676716283, -0.01600000075995922, -0.01600000075995922, 0.49600002355873585, 0.0, 0.0, 0.0, 0.0, 0.0, 1.7398118963989205E9, 0.0, 2025-02-17 17:04:56.398
21.0, 3.990473252721131, 486.35902963764966, 13.972266234457493, 1876.324637319427, -0.01600000075995922, -0.01600000075995922, 0.49600002355873585, 0.0, 0.0, 0.0, 0.0, 0.0, 1.7398118963990407E9, 0.0, 2025-02-17 17:04:56.399
22.0, 2.3075182726606727, 498.6782600916922, 11.28701806627214, 2120.635471874848, -0.01600000075995922, -0.01600000075995922, 0.49600002355873585, 0.0, 0.0, 0.0, 0.0, 0.0, 1.7398118963995528E9, 0.0, 2025-02-17 17:04:56.399
22.0, 7.203047314658761, 528.2833081409335, 14.155521332286298, 2037.514325409662, -0.01600000075995922, -0.01600000075995922, 0.49600002355873585, 0.0, 0.0, 0.0, 0.0, 0.0, 1.739811896399675E9, 0.0, 2025-02-17 17:04:56.399
23.0, 11.64230856206268, 471.42186921462417, 17.74582528974861, 2282.515171506908, -0.01600000075995922, -0.01600000075995922, 0.49600002355873585, 0.0, 0.0, 0.0, 0.0, 0.0, 1.7398118963999245E9, 0.0, 2025-02-17 17:04:56.399
23.0, 11.040184669196606, 457.2102493830025, 11.900361659005284, 2374.234347970225, -0.01600000075995922, -0.01600000075995922, 0.49600002355873585, 0.0, 0.0, 0.0, 0.0, 0.0, 1.7398118963999956E9, 0.0, 2025-02-17 17:04:56.399
24.0, 1.6717352801933885, 466.20470877643675, 11.993859157897532, 2131.574679245241, -0.01600000075995922, -0.01600000075995922, 0.49600002355873585, 0.0, 0.0, 0.0, 0.0, 0.0, 1.7398118964281473E9, 0.0, 2025-02-17 17:04:56.428
24.0, 9.525525187142193, 498.59598229266703, 13.725432837381959, 2046.908954098355, -0.01600000075995922, -0.01600000075995922, 0.49600002355873585, 0.0, 0.0, 0.0, 0.0, 0.0, 1.7398118964281847E9, 0.0, 2025-02-17 17:04:56.428
25.0, 14.731465925462544, 437.0933275213465, 11.619869162328541, 2287.0030514537357, -0.01600000075995922, -0.01600000075995922, 0.49600002355873585, 0.0, 0.0, 0.0, 0.0, 0.0, 1.7398118964285605E9, 0.0, 2025-02-17 17:04:56.428
25.0, 5.060084640048444, 431.19176539126784, 13.437460540793836, 2378.348237921484, -0.01600000075995922, -0.01600000075995922, 0.49600002355873585, 0.0, 0.0, 0.0, 0.0, 0.0, 1.7398118964286046E9, 0.0, 2025-02-17 17:04:56.428
26.0, 3.945594453252852, 447.8343201940879, 8.224040002562106, 2614.1694995774888, -0.01600000075995922, -0.01600000075995922, 0.49600002355873585, 0.0, 0.0, 0.0, 0.0, 0.0, 1.739811896457786E9, 0.0, 2025-02-17 17:04:56.457
26.0, 9.117876091971993, 485.3829157492146, 11.492712563835084, 2534.455401971936, -0.01600000075995922, -0.01600000075995922, 0.49600002355873585, 0.0, 0.0, 0.0, 0.0, 0.0, 1.7398118964578636E9, 0.0, 2025-02-17 17:04:56.457
27.0, 7.603216609917581, 426.93201934173703, 10.83449017163366, 2778.947621675208, -0.01600000075995922, -0.01600000075995922, 0.49600002355873585, 0.0, 0.0, 0.0, 0.0, 0.0, 1.7398118964581056E9, 0.0, 2025-02-17 17:04:56.458
27.0, 5.714567132294178, 428.39619017438963, 13.486079240217805, 2865.3224811018445, -0.01600000075995922, -0.01600000075995922, 0.49600002355873585, 0.0, 0.0, 0.0, 0.0, 0.0, 1.7398118964581647E9, 0.0, 2025-02-17 17:04:56.458
28.0, 2.1018237750977278, 449.2984910267405, 6.627102721482515, 3103.66817522794, -0.01600000075995922, -0.01600000075995922, 0.49600002355873585, 0.0, 0.0, 0.0, 0.0, 0.0, 1.7398118964585726E9, 0.0, 2025-02-17 17:04:56.458
28.0, 6.488726423121989, 487.7035236717202, 15.146594820544124, 3015.819795218762, -0.01600000075995922, -0.01600000075995922, 0.49600002355873585, 0.0, 0.0, 0.0, 0.0, 0.0, 1.7398118964586132E9, 0.0, 2025-02-17 17:04:56.458
29.0, 10.692373973317444, 440.14321593521163, 14.682847226038575, 2772.556132650934, -0.01600000075995922, -0.01600000075995922, 0.49600002355873585, 0.0, 0.0, 0.0, 0.0, 0.0, 1.7398118964592795E9, 0.0, 2025-02-17 17:04:56.459
29.0, 5.564971134066582, 433.87888350943103, 9.192674091085792, 2860.7037046565674, -0.01600000075995922, -0.01600000075995922, 0.49600002355873585, 0.0, 0.0, 0.0, 0.0, 0.0, 1.7398118964593167E9, 0.0, 2025-02-17 17:04:56.459
30.0, -0.011219699867069721, 459.47101890621707, 5.265779137611389, 3088.6861360054463, -0.01600000075995922, -0.01600000075995922, 0.7520000357180834, 0.0, 0.0, 0.0, 0.0, 0.0, 1.7398118964875028E9, 0.0, 2025-02-17 17:04:56.487
30.0, 8.05574450455606, 489.00500885630026, 12.513705251738429, 3005.220918744337, -0.01600000075995922, -0.01600000075995922, 0.7520000357180834, 0.0, 0.0, 0.0, 0.0, 0.0, 1.7398118964875736E9, 0.0, 2025-02-17 17:04:56.487
31.0, 7.491019611246884, 431.5227465373464, 12.842816447839141, 2766.516194222495, -0.01600000075995922, -0.01600000075995922, 0.7520000357180834, 0.0, 0.0, 0.0, 0.0, 0.0, 1.7398118964878356E9, 0.0, 2025-02-17 17:04:56.487
31.0, 3.4743670588359237, 446.1700647138059, 11.474013064056635, 2855.9390721130185, -0.01600000075995922, -0.01600000075995922, 0.7520000357180834, 0.0, 0.0, 0.0, 0.0, 0.0, 1.7398118964878895E9, 0.0, 2025-02-17 17:04:56.487
32.0, 1.1032704869285226, 471.4854475138709, 7.700454008765519, 3079.32890631631, -0.01600000075995922, -0.01600000075995922, 0.7520000357180834, 0.0, 0.0, 0.0, 0.0, 0.0, 1.7398118965179646E9, 0.0, 2025-02-17 17:04:56.517
32.0, 7.674274709075689, 478.4154821317643, 10.85318967141211, 3002.300056878943, -0.01600000075995922, -0.01600000075995922, 0.7520000357180834, 0.0, 0.0, 0.0, 0.0, 0.0, 1.7398118965180838E9, 0.0, 2025-02-17 17:04:56.518
33.0, 9.940654082223773, 434.1724656559527, 14.267718330956995, 2773.053539345041, -0.01600000075995922, -0.01600000075995922, 0.7520000357180834, 0.0, 0.0, 0.0, 0.0, 0.0, 1.7398118965186532E9, 0.0, 2025-02-17 17:04:56.518
33.0, 6.761739119887352, 450.36436251411214, 11.70214696135372, 2852.9209728487767, -0.01600000075995922, -0.01600000075995922, 0.7520000357180834, 0.0, 0.0, 0.0, 0.0, 0.0, 1.739811896518721E9, 0.0, 2025-02-17 17:04:56.518
34.0, 1.6455559805035591, 496.6718037654646, 9.001939193345606, 3092.0520459655672, -0.01600000075995922, -0.01600000075995922, 0.7520000357180834, 0.0, 0.0, 0.0, 0.0, 0.0, 1.7398118965189724E9, 0.0, 2025-02-17 17:04:56.518
34.0, 4.02039245236665, 483.21751367487013, 11.369295865297318, 3010.3408417836763, -0.01600000075995922, -0.01600000075995922, 0.7520000357180834, 0.0, 0.0, 0.0, 0.0, 0.0, 1.7398118965190332E9, 0.0, 2025-02-17 17:04:56.519
35.0, 7.513459010981023, 408.744885857217, 13.616975738666952, 2769.0892453920096, -0.01600000075995922, -0.01600000075995922, 0.7520000357180834, 0.0, 0.0, 0.0, 0.0, 0.0, 1.7398118965194392E9, 0.0, 2025-02-17 17:04:56.519
35.0, 8.684047697111964, 457.6796068274416, 11.376775665208697, 2849.6448204875924, -0.01600000075995922, -0.01600000075995922, 0.7520000357180834, 0.0, 0.0, 0.0, 0.0, 0.0, 1.7398118965195227E9, 0.0, 2025-02-17 17:04:56.519
36.0, 2.4645940707996488, 487.7222231714986, 9.510565587319434, 3081.2549547934905, -0.01600000075995922, -0.01600000075995922, 0.7520000357180834, 0.0, 0.0, 0.0, 0.0, 0.0, 1.7398118965474803E9, 0.0, 2025-02-17 17:04:56.547
36.0, 12.031258157454431, 464.72744829393923, 11.425394364632666, 2996.776224644389, -0.01600000075995922, -0.01600000075995922, 0.7520000357180834, 0.0, 0.0, 0.0, 0.0, 0.0, 1.7398118965475152E9, 0.0, 2025-02-17 17:04:56.547
37.0, 12.936313946731389, 413.1916269045323, 14.843662924133241, 2770.061619380489, -0.01600000075995922, -0.01600000075995922, 0.7520000357180834, 0.0, 0.0, 0.0, 0.0, 0.0, 1.7398118965477924E9, 0.0, 2025-02-17 17:04:56.547
37.0, 8.238999602384865, 465.14818703895435, 9.058037692680955, 2851.0996415703557, -0.01600000075995922, -0.01600000075995922, 0.7520000357180834, 0.0, 0.0, 0.0, 0.0, 0.0, 1.7398118965478194E9, 0.0, 2025-02-17 17:04:56.547
38.0, 3.6875413563102484, 486.55911428527907, 6.245632926002145, 3080.9071440976113, -0.01600000075995922, -0.01600000075995922, 0.7520000357180834, 0.0, 0.0, 0.0, 0.0, 0.0, 1.7398118965781837E9, 0.0, 2025-02-17 17:04:56.578
38.0, 6.986133117228746, 469.9296491323039, 12.999892245978117, 3007.7939699138515, -0.01600000075995922, -0.01600000075995922, 0.7520000357180834, 0.0, 0.0, 0.0, 0.0, 0.0, 1.7398118965782824E9, 0.0, 2025-02-17 17:04:56.578
39.0, 11.455313564278185, 411.8976215198636, 13.459899940527976, 2765.5662596337497, -0.01600000075995922, -0.01600000075995922, 0.7520000357180834, 0.0, 0.0, 0.0, 0.0, 0.0, 1.7398118965785913E9, 0.0, 2025-02-17 17:04:56.578
39.0, 5.015205840580165, 434.7727195988409, 12.723139649257064, 2850.7555707744323, -0.01600000075995922, -0.01600000075995922, 0.7520000357180834, 0.0, 0.0, 0.0, 0.0, 0.0, 1.739811896578634E9, 0.0, 2025-02-17 17:04:56.578
40.0, -1.1743285860866308, 467.769856907893, 10.748472472652793, 3086.831145627424, -0.01600000075995922, -0.01600000075995922, 0.8640000410377979, 0.0, 0.0, 0.0, 0.0, 0.0, 1.7398118966076987E9, 0.0, 2025-02-17 17:04:56.607
40.0, 3.4070488596335053, 464.65265029482543, 14.353736029937863, 3005.965158835519, -0.01600000075995922, -0.01600000075995922, 0.8640000410377979, 0.0, 0.0, 0.0, 0.0, 0.0, 1.739811896607826E9, 0.0, 2025-02-17 17:04:56.607
41.0, 9.873335883021355, 383.53796015586704, 12.88395534735173, 2766.987421616912, -0.01600000075995922, -0.03200000151991844, 0.8640000410377979, 0.0, 0.0, 0.0, 0.0, 0.0, 1.739811896608003E9, 0.0, 2025-02-17 17:04:56.608
41.0, 1.9185686772689223, 426.72819479415193, 8.792504795826972, 2854.293516132515, -0.01600000075995922, -0.03200000151991844, 0.8640000410377979, 0.0, 0.0, 0.0, 0.0, 0.0, 1.7398118966080682E9, 0.0, 2025-02-17 17:04:56.608
42.0, 0.12715659849345684, 458.77913741441444, 5.463993835262954, 3088.9591487022117, -0.01600000075995922, -0.03200000151991844, 0.8640000410377979, 0.0, 0.0, 0.0, 0.0, 0.0, 1.739811896608716E9, 0.0, 2025-02-17 17:04:56.608
42.0, 11.376775665208697, 431.6854321854189, 15.68888031411916, 3004.7197721502744, -0.01600000075995922, -0.03200000151991844, 0.8640000410377979, 0.0, 0.0, 0.0, 0.0, 0.0, 1.7398118966087744E9, 0.0, 2025-02-17 17:04:56.608
43.0, 12.06865715701133, 380.8564518876374, 16.11148900911212, 2789.0640510553494, -0.01600000075995922, -0.03200000151991844, 0.8640000410377979, 0.0, 0.0, 0.0, 0.0, 0.0, 1.7398118966094973E9, 0.0, 2025-02-17 17:04:56.609
43.0, 5.0488649401813745, 425.1462171128951, 11.477752964012325, 2862.3941394365393, -0.01600000075995922, -0.03200000151991844, 0.8640000410377979, 0.0, 0.0, 0.0, 0.0, 0.0, 1.7398118966095304E9, 0.0, 2025-02-17 17:04:56.609
44.0, 0.45252789463847876, 426.6197376954369, 11.201000367291272, 3094.3146854387596, -0.01600000075995922, -0.03200000151991844, 0.8640000410377979, 0.0, 0.0, 0.0, 0.0, 0.0, 1.7398118966098359E9, 0.0, 2025-02-17 17:04:56.609
44.0, 7.330203913152218, 430.9542817440815, 15.860915712080896, 3018.0113765927963, -0.01600000075995922, -0.03200000151991844, 0.8640000410377979, 0.0, 0.0, 0.0, 0.0, 0.0, 1.7398118966098735E9, 0.0, 2025-02-17 17:04:56.609
45.0, 8.553151198662817, 375.4953053011559, 15.232612519524992, 2785.9262749925256, -0.01600000075995922, -0.03200000151991844, 0.8640000410377979, 0.0, 0.0, 0.0, 0.0, 0.0, 1.7398118966374433E9, 0.0, 2025-02-17 17:04:56.637
45.0, 8.85234319511801, 403.99521291349083, 11.417914564721286, 2868.0974868689664, -0.01600000075995922, -0.03200000151991844, 0.8640000410377979, 0.0, 0.0, 0.0, 0.0, 0.0, 1.7398118966374853E9, 0.0, 2025-02-17 17:04:56.637
46.0, 0.044878799468278885, 443.395058946684, 8.190380902960896, 3112.026851628907, -0.01600000075995922, -0.03200000151991844, 0.8640000410377979, 0.0, 0.0, 0.0, 0.0, 0.0, 1.7398118966379151E9, 0.0, 2025-02-17 17:04:56.637
46.0, 8.785024995915592, 440.80891812732443, 10.236106178723276, 3020.3338544652797, -0.01600000075995922, -0.03200000151991844, 0.8640000410377979, 0.0, 0.0, 0.0, 0.0, 0.0, 1.739811896637956E9, 0.0, 2025-02-17 17:04:56.637
47.0, 10.520338575355709, 388.9514653417282, 16.765971501357853, 2784.800565105863, -0.01600000075995922, -0.03200000151991844, 0.8640000410377979, 0.0, 0.0, 0.0, 0.0, 0.0, 1.7398118966674545E9, 0.0, 2025-02-17 17:04:56.667
47.0, 7.218006914481521, 437.30276191886514, 8.945840694010258, 2868.463997064624, -0.01600000075995922, -0.03200000151991844, 0.8640000410377979, 0.0, 0.0, 0.0, 0.0, 0.0, 1.7398118966674917E9, 0.0, 2025-02-17 17:04:56.667
48.0, -0.8526971898972988, 477.8133582388982, 6.410188524052501, 3090.369090985507, -0.01600000075995922, -0.03200000151991844, 0.8640000410377979, 0.0, 0.0, 0.0, 0.0, 0.0, 1.7398118966679108E9, 0.0, 2025-02-17 17:04:56.667
48.0, 7.25166601408273, 467.81473570736125, 14.802524024620652, 3001.866228484083, -0.01600000075995922, -0.03200000151991844, 0.8640000410377979, 0.0, 0.0, 0.0, 0.0, 0.0, 1.7398118966679423E9, 0.0, 2025-02-17 17:04:56.667
49.0, 10.408141576685011, 435.2701262929477, 20.640507855452597, 2777.5713384915143, -0.01600000075995922, -0.03200000151991844, 0.8640000410377979, 0.0, 0.0, 0.0, 0.0, 0.0, 1.739811896668988E9, 0.0, 2025-02-17 17:04:56.668
49.0, 7.25914581399411, 464.37963759806007, 8.949580593965948, 2856.862827402074, -0.01600000075995922, -0.03200000151991844, 0.8640000410377979, 0.0, 0.0, 0.0, 0.0, 0.0, 1.739811896669067E9, 0.0, 2025-02-17 17:04:56.669
50.0, 7.446140811778605, 502.7921500429511, 12.86899574752897, 3089.172322999686, -0.01600000075995922, -0.03200000151991844, 0.9280000440776348, 0.0, 0.0, 0.0, 0.0, 0.0, 1.7398118966692636E9, 0.0, 2025-02-17 17:04:56.669
50.0, 6.997352817095816, 493.6200454016216, 12.236952655017376, 3014.2677367371507, -0.01600000075995922, -0.03200000151991844, 0.9280000440776348, 0.0, 0.0, 0.0, 0.0, 0.0, 1.7398118966692927E9, 0.0, 2025-02-17 17:04:56.669
51.0, 10.565217374823987, 433.75920671084896, 11.956460158340633, 2779.261773271486, -0.01600000075995922, -0.03200000151991844, 0.9280000440776348, 0.0, 0.0, 0.0, 0.0, 0.0, 1.739811896697477E9, 0.0, 2025-02-17 17:04:56.697
51.0, 6.200754126533866, 476.4034159556031, 14.376175429672003, 2868.7370097613893, -0.01600000075995922, -0.03200000151991844, 0.9280000440776348, 0.0, 0.0, 0.0, 0.0, 0.0, 1.7398118966975157E9, 0.0, 2025-02-17 17:04:56.697
52.0, 2.206540973857045, 503.81688263081014, 4.712273944169283, 3099.759979774244, -0.01600000075995922, -0.03200000151991844, 0.9280000440776348, 0.0, 0.0, 0.0, 0.0, 0.0, 1.7398118966977248E9, 0.0, 2025-02-17 17:04:56.697
52.0, 8.743886096403003, 482.56490113260224, 13.605756038799882, 3008.3025963078253, -0.01600000075995922, -0.03200000151991844, 0.9280000440776348, 0.0, 0.0, 0.0, 0.0, 0.0, 1.7398118966977606E9, 0.0, 2025-02-17 17:04:56.697
53.0, 12.08735665678978, 433.1944818175398, 12.663301249966025, 2789.5090991500765, -0.01600000075995922, -0.03200000151991844, 0.9280000440776348, 0.0, 0.0, 0.0, 0.0, 0.0, 1.739811896727589E9, 0.0, 2025-02-17 17:04:56.727
53.0, 3.9343747533857822, 465.4791681850329, 11.754505560733378, 2865.1803649035282, -0.01600000075995922, -0.03200000151991844, 0.9280000440776348, 0.0, 0.0, 0.0, 0.0, 0.0, 1.739811896727692E9, 0.0, 2025-02-17 17:04:56.727
54.0, -0.2094343975186348, 471.773419810459, 5.793105031363666, 3085.387544244528, -0.01600000075995922, -0.03200000151991844, 0.9280000440776348, 0.0, 0.0, 0.0, 0.0, 0.0, 1.7398118967280548E9, 0.0, 2025-02-17 17:04:56.728
54.0, 6.294251625426114, 483.03051867708564, 14.772604824975133, 3010.969144976232, -0.01600000075995922, -0.03200000151991844, 0.9280000440776348, 0.0, 0.0, 0.0, 0.0, 0.0, 1.7398118967282355E9, 0.0, 2025-02-17 17:04:56.728
55.0, 15.251312019303441, 421.06411631125957, 13.441200440749526, 2774.4447821285576, -0.01600000075995922, -0.03200000151991844, 0.9280000440776348, 0.0, 0.0, 0.0, 0.0, 0.0, 1.7398118967287712E9, 0.0, 2025-02-17 17:04:56.728
55.0, 4.742193143814802, 445.28183847432956, 11.163601367734373, 2867.787075172644, -0.01600000075995922, -0.03200000151991844, 0.9280000440776348, 0.0, 0.0, 0.0, 0.0, 0.0, 1.7398118967288399E9, 0.0, 2025-02-17 17:04:56.728
56.0, 3.3546902602538466, 483.7392297186889, 9.072997292503715, 3096.1135773174465, -0.01600000075995922, -0.03200000151991844, 0.9280000440776348, 0.0, 0.0, 0.0, 0.0, 0.0, 1.7398118967293596E9, 0.0, 2025-02-17 17:04:56.729
56.0, 10.785871472209692, 476.8297645505518, 12.356629453599453, 3010.2548240846954, -0.01600000075995922, -0.03200000151991844, 0.9280000440776348, 0.0, 0.0, 0.0, 0.0, 0.0, 1.7398118967294185E9, 0.0, 2025-02-17 17:04:56.729
57.0, 9.746179284527898, 403.969033613801, 12.539884551428258, 2780.9073292519897, -0.01600000075995922, -0.03200000151991844, 0.9280000440776348, 0.0, 0.0, 0.0, 0.0, 0.0, 1.739811896757478E9, 0.0, 2025-02-17 17:04:56.757
57.0, 8.489572899416089, 457.5225310293026, 9.387148888781667, 2878.71506284317, -0.01600000075995922, -0.03200000151991844, 0.9280000440776348, 0.0, 0.0, 0.0, 0.0, 0.0, 1.739811896757516E9, 0.0, 2025-02-17 17:04:56.757
58.0, 1.4174220832064748, 468.33458180120215, 7.711673708632588, 3093.7985792448744, -0.01600000075995922, -0.03200000151991844, 0.9280000440776348, 0.0, 0.0, 0.0, 0.0, 0.0, 1.7398118967579496E9, 0.0, 2025-02-17 17:04:56.757
58.0, 8.807464395649731, 466.79187306948006, 10.647495173849165, 3016.534116110299, -0.01600000075995922, -0.03200000151991844, 0.9280000440776348, 0.0, 0.0, 0.0, 0.0, 0.0, 1.7398118967579813E9, 0.0, 2025-02-17 17:04:56.757
59.0, 6.316691025160253, 410.35678273811936, 15.71505961380899, 2788.693800959736, -0.01600000075995922, -0.03200000151991844, 0.9280000440776348, 0.0, 0.0, 0.0, 0.0, 0.0, 1.7398118967876348E9, 0.0, 2025-02-17 17:04:56.787
59.0, 7.577037310227752, 434.2304341052659, 11.791904560290277, 2862.614793533925, -0.01600000075995922, -0.03200000151991844, 0.9280000440776348, 0.0, 0.0, 0.0, 0.0, 0.0, 1.7398118967876956E9, 0.0, 2025-02-17 17:04:56.787
60.0, 0.9985532881692052, 462.6761131682433, 6.963693717494607, 3094.7260744338855, -0.01600000075995922, -0.03200000151991844, 0.9600000455975533, 0.0, 0.0, 0.0, 0.0, 0.0, 1.7398118967882054E9, 0.0, 2025-02-17 17:04:56.788
60.0, 11.212220067158341, 477.63197309104726, 13.923647535033524, 3014.3088756366633, -0.01600000075995922, -0.03200000151991844, 0.9600000455975533, 0.0, 0.0, 0.0, 0.0, 0.0, 1.7398118967882843E9, 0.0, 2025-02-17 17:04:56.788
61.0, 11.421654464676976, 408.74675580719486, 14.379915329627693, 2783.809491617605, -0.01600000075995922, -0.03200000151991844, 0.9600000455975533, 0.0, 0.0, 0.0, 0.0, 0.0, 1.7398118967887292E9, 0.0, 2025-02-17 17:04:56.788
61.0, 3.6763216564431787, 467.3640777627006, 10.87562907114625, 2883.2179023898207, -0.01600000075995922, -0.03200000151991844, 0.9600000455975533, 0.0, 0.0, 0.0, 0.0, 0.0, 1.7398118967887576E9, 0.0, 2025-02-17 17:04:56.788
62.0, 2.5543516697362065, 475.79755216278136, 7.692974208854139, 3090.5186869837344, -0.03200000151991844, -0.03200000151991844, 0.9600000455975533, 0.0, 0.0, 0.0, 0.0, 0.0, 1.7398118967892573E9, 0.0, 2025-02-17 17:04:56.789
62.0, 9.495605987496674, 466.11308122752234, 13.347702941857278, 3008.605528204236, -0.03200000151991844, -0.03200000151991844, 0.9600000455975533, 0.0, 0.0, 0.0, 0.0, 0.0, 1.739811896789291E9, 0.0, 2025-02-17 17:04:56.789
63.0, 13.220546343363822, 441.28388542169705, 16.421900705434382, 2788.862096457742, -0.03200000151991844, -0.03200000151991844, 0.9600000455975533, 0.0, 0.0, 0.0, 0.0, 0.0, 1.739811896817644E9, 0.0, 2025-02-17 17:04:56.817
63.0, 8.108103103935719, 475.69657486397773, 9.802277783863246, 2874.518895092886, -0.03200000151991844, -0.03200000151991844, 0.9600000455975533, 0.0, 0.0, 0.0, 0.0, 0.0, 1.7398118968177202E9, 0.0, 2025-02-17 17:04:56.817
64.0, -1.7988918786868453, 476.02194616012275, 7.793951507657766, 3086.2739005340263, -0.03200000151991844, -0.03200000151991844, 0.9600000455975533, 0.0, 0.0, 0.0, 0.0, 0.0, 1.73981189681799E9, 0.0, 2025-02-17 17:04:56.817
64.0, 8.194120802916586, 490.35698269028217, 12.382808753289282, 3010.4492988823913, -0.03200000151991844, -0.03200000151991844, 0.9600000455975533, 0.0, 0.0, 0.0, 0.0, 0.0, 1.7398118968180654E9, 0.0, 2025-02-17 17:04:56.818
65.0, 16.365802206099033, 424.6918192682788, 13.572096939198673, 2779.0074600744992, -0.03200000151991844, -0.03200000151991844, 0.9600000455975533, 0.0, 0.0, 0.0, 0.0, 0.0, 1.7398118968487191E9, 0.0, 2025-02-17 17:04:56.848
65.0, 9.323570589534938, 458.1957130213268, 9.016898793168366, 2872.1216192212887, -0.03200000151991844, -0.03200000151991844, 0.9600000455975533, 0.0, 0.0, 0.0, 0.0, 0.0, 1.739811896848796E9, 0.0, 2025-02-17 17:04:56.848
66.0, -2.2813389729708433, 499.72356212930754, 9.215113490819931, 3092.3362783621997, -0.03200000151991844, -0.03200000151991844, 0.9600000455975533, 0.0, 0.0, 0.0, 0.0, 0.0, 1.7398118968491411E9, 0.0, 2025-02-17 17:04:56.849
66.0, 8.770065396092832, 489.201353603974, 15.520584816113114, 3001.4174404894, -0.03200000151991844, -0.03200000151991844, 0.9600000455975533, 0.0, 0.0, 0.0, 0.0, 0.0, 1.7398118968492715E9, 0.0, 2025-02-17 17:04:56.849
67.0, 12.09483645670116, 419.8748281253502, 17.65980759076774, 2778.192161884159, -0.03200000151991844, -0.03200000151991844, 0.9600000455975533, 0.0, 0.0, 0.0, 0.0, 0.0, 1.7398118968495383E9, 0.0, 2025-02-17 17:04:56.849
67.0, 3.335990760475397, 465.7652705316432, 11.410434764809906, 2870.2292298437096, -0.03200000151991844, -0.03200000151991844, 0.9600000455975533, 0.0, 0.0, 0.0, 0.0, 0.0, 1.7398118968495977E9, 0.0, 2025-02-17 17:04:56.849
68.0, -0.2617929968982935, 478.877359776292, 11.107502868399024, 3079.8337928103283, -0.03200000151991844, -0.03200000151991844, 0.9600000455975533, 0.0, 0.0, 0.0, 0.0, 0.0, 1.7398118968502083E9, 0.0, 2025-02-17 17:04:56.850
68.0, 7.618176209740341, 478.68475492857397, 15.176514020189643, 3002.8386024725623, -0.03200000151991844, -0.03200000151991844, 0.9600000455975533, 0.0, 0.0, 0.0, 0.0, 0.0, 1.739811896850317E9, 0.0, 2025-02-17 17:04:56.850
69.0, 14.996998822316527, 435.89655953552574, 12.8577760476619, 2778.2445204835385, -0.03200000151991844, -0.03200000151991844, 0.9600000455975533, 0.0, 0.0, 0.0, 0.0, 0.0, 1.7398118968774512E9, 0.0, 2025-02-17 17:04:56.877
69.0, 4.600076945498586, 460.4882716941647, 13.003632145933807, 2858.1119539872743, -0.03200000151991844, -0.03200000151991844, 0.9600000455975533, 0.0, 0.0, 0.0, 0.0, 0.0, 1.7398118968775184E9, 0.0, 2025-02-17 17:04:56.877
70.0, 3.9343747533857822, 486.67879108386114, 9.619022686034441, 3081.3746315920725, -0.03200000151991844, -0.03200000151991844, 0.9760000463575125, 0.0, 0.0, 0.0, 0.0, 0.0, 1.7398118968778453E9, 0.0, 2025-02-17 17:04:56.877
70.0, 9.26747209019959, 482.5256321830675, 13.489819140173495, 2993.4776328834705, -0.03200000151991844, -0.03200000151991844, 0.9760000463575125, 0.0, 0.0, 0.0, 0.0, 0.0, 1.739811896877886E9, 0.0, 2025-02-17 17:04:56.877
71.0, 11.967679858207703, 414.4931120891124, 18.807956877164543, 2776.957994898781, -0.03200000151991844, -0.03200000151991844, 0.9760000463575125, 0.0, 0.0, 0.0, 0.0, 0.0, 1.7398118969075632E9, 0.0, 2025-02-17 17:04:56.907
71.0, 6.0399384284392, 463.0127041642554, 9.69382068514824, 2875.554847380612, -0.03200000151991844, -0.03200000151991844, 0.9760000463575125, 0.0, 0.0, 0.0, 0.0, 0.0, 1.739811896907612E9, 0.0, 2025-02-17 17:04:56.907
72.0, 2.2252404736354947, 469.25833709025756, 7.4648403115570545, 3092.3362783621997, -0.01600000075995922, -0.03200000151991844, 0.9760000463575125, 0.0, 0.0, 0.0, 0.0, 0.0, 1.7398118969078665E9, 0.0, 2025-02-17 17:04:56.907
72.0, 10.280984978191555, 456.9297568863258, 12.46508655231446, 3002.842342372518, -0.01600000075995922, -0.03200000151991844, 0.9760000463575125, 0.0, 0.0, 0.0, 0.0, 0.0, 1.7398118969078915E9, 0.0, 2025-02-17 17:04:56.907
73.0, 11.077583668753505, 429.4564518118277, 14.237799131311476, 2790.28699834086, -0.01600000075995922, -0.03200000151991844, 0.9760000463575125, 0.0, 0.0, 0.0, 0.0, 0.0, 1.7398118969086232E9, 0.0, 2025-02-17 17:04:56.908
73.0, 8.403555200435221, 457.9750589239411, 13.497298940084875, 2882.4362632990815, -0.01600000075995922, -0.03200000151991844, 0.9760000463575125, 0.0, 0.0, 0.0, 0.0, 0.0, 1.7398118969086585E9, 0.0, 2025-02-17 17:04:56.908
74.0, -0.2767525967210531, 452.93928363360465, 6.144655627198517, 3096.816678509116, -0.01600000075995922, -0.03200000151991844, 0.9760000463575125, 0.0, 0.0, 0.0, 0.0, 0.0, 1.7398118969092407E9, 0.0, 2025-02-17 17:04:56.909
74.0, 6.43636782374233, 456.11819859594107, 17.113782197237015, 3021.126713255886, -0.01600000075995922, -0.03200000151991844, 0.9760000463575125, 0.0, 0.0, 0.0, 0.0, 0.0, 1.7398118969093535E9, 0.0, 2025-02-17 17:04:56.909
75.0, 11.889141959138215, 421.37452800758183, 14.90350132342428, 2797.74061895255, -0.01600000075995922, -0.03200000151991844, 0.9760000463575125, 0.0, 0.0, 0.0, 0.0, 0.0, 1.7398118969374335E9, 0.0, 2025-02-17 17:04:56.937
75.0, 7.797691407613456, 446.5683640590869, 8.927141194231808, 2880.1811036258005, -0.01600000075995922, -0.03200000151991844, 0.9760000463575125, 0.0, 0.0, 0.0, 0.0, 0.0, 1.739811896937504E9, 0.0, 2025-02-17 17:04:56.937
76.0, 5.273258937522769, 481.52894884487614, 7.8687495067715645, 3099.0531386826187, -0.01600000075995922, -0.03200000151991844, 0.9760000463575125, 0.0, 0.0, 0.0, 0.0, 0.0, 1.7398118969378738E9, 0.0, 2025-02-17 17:04:56.937
76.0, 8.351196601055562, 470.0044471314177, 11.821823759935796, 3009.944412388373, -0.01600000075995922, -0.03200000151991844, 0.9760000463575125, 0.0, 0.0, 0.0, 0.0, 0.0, 1.7398118969379065E9, 0.0, 2025-02-17 17:04:56.937
77.0, 11.100023068487644, 426.124200951308, 16.11148900911212, 2793.9969790969044, -0.01600000075995922, -0.03200000151991844, 0.9760000463575125, 0.0, 0.0, 0.0, 0.0, 0.0, 1.73981189696753E9, 0.0, 2025-02-17 17:04:56.967
77.0, 3.6351827569305897, 478.07328128581867, 11.26083876658231, 2882.5110612981953, -0.01600000075995922, -0.03200000151991844, 0.9760000463575125, 0.0, 0.0, 0.0, 0.0, 0.0, 1.7398118969675884E9, 0.0, 2025-02-17 17:04:56.967
78.0, -1.7614928791299462, 459.49906815588474, 5.938961129635572, 3081.5055280905217, -0.01600000075995922, -0.03200000151991844, 0.9760000463575125, 0.0, 0.0, 0.0, 0.0, 0.0, 1.739811896968112E9, 0.0, 2025-02-17 17:04:56.968
78.0, 5.766925731673837, 480.1582755111158, 12.236952655017376, 3004.4542392534204, -0.01600000075995922, -0.03200000151991844, 0.9760000463575125, 0.0, 0.0, 0.0, 0.0, 0.0, 1.7398118969681718E9, 0.0, 2025-02-17 17:04:56.968
79.0, 10.703593673184514, 442.96497045177966, 16.395721405744553, 2783.570138020441, -0.01600000075995922, -0.03200000151991844, 0.9760000463575125, 0.0, 0.0, 0.0, 0.0, 0.0, 1.739811896968953E9, 0.0, 2025-02-17 17:04:56.968
79.0, 3.855836854316294, 466.92837941786274, 11.515151963569224, 2864.952231006231, -0.01600000075995922, -0.03200000151991844, 0.9760000463575125, 0.0, 0.0, 0.0, 0.0, 0.0, 1.7398118969689977E9, 0.0, 2025-02-17 17:04:56.968
80.0, -1.0322123877704144, 493.627525201533, 8.45591379981488, 3081.2773941932246, -0.01600000075995922, -0.03200000151991844, 0.9920000471174717, 0.0, 0.0, 0.0, 0.0, 0.0, 1.739811896969391E9, 0.0, 2025-02-17 17:04:56.969
80.0, 5.770665631629527, 492.7617383617908, 13.418761041015387, 2996.3236967497505, -0.01600000075995922, -0.03200000151991844, 0.9920000471174717, 0.0, 0.0, 0.0, 0.0, 0.0, 1.7398118969694214E9, 0.0, 2025-02-17 17:04:56.969
81.0, 8.093143504112959, 434.22482425533235, 11.859222759492695, 2781.6964481426403, -0.01600000075995922, -0.01600000075995922, 0.9920000471174717, 0.0, 0.0, 0.0, 0.0, 0.0, 1.7398118969977522E9, 0.0, 2025-02-17 17:04:56.997
81.0, 7.715413608588278, 481.74960294226184, 10.329603677615523, 2868.381719265599, -0.01600000075995922, -0.01600000075995922, 0.9920000471174717, 0.0, 0.0, 0.0, 0.0, 0.0, 1.7398118969978905E9, 0.0, 2025-02-17 17:04:56.997
82.0, 6.03245862852782, 481.75334284221753, 4.667395144701004, 3079.5794796133414, -0.01600000075995922, -0.01600000075995922, 0.9920000471174717, 0.0, 0.0, 0.0, 0.0, 0.0, 1.7398118969983118E9, 0.0, 2025-02-17 17:04:56.998
82.0, 4.895529041998088, 476.1977214580402, 11.189780667424202, 2995.5009187594987, -0.01600000075995922, -0.01600000075995922, 0.9920000471174717, 0.0, 0.0, 0.0, 0.0, 0.0, 1.7398118969983914E9, 0.0, 2025-02-17 17:04:56.998
83.0, 12.562323951162398, 453.4441701276228, 15.120415520854294, 2784.426575110294, -0.01600000075995922, -0.01600000075995922, 0.9920000471174717, 0.0, 0.0, 0.0, 0.0, 0.0, 1.7398118970275013E9, 0.0, 2025-02-17 17:04:57.027
83.0, 6.6196229215711355, 484.30395461199805, 7.292804913595319, 2866.7698223846965, -0.01600000075995922, -0.01600000075995922, 0.9920000471174717, 0.0, 0.0, 0.0, 0.0, 0.0, 1.7398118970275528E9, 0.0, 2025-02-17 17:04:57.027
84.0, 0.9312350889667869, 477.28977224510163, 5.075044239871204, 3078.184496929869, -0.01600000075995922, -0.01600000075995922, 0.9920000471174717, 0.0, 0.0, 0.0, 0.0, 0.0, 1.7398118970278077E9, 0.0, 2025-02-17 17:04:57.027
84.0, 4.626256245188415, 491.17602078057826, 13.2654251428321, 3001.421180389356, -0.01600000075995922, -0.01600000075995922, 0.9920000471174717, 0.0, 0.0, 0.0, 0.0, 0.0, 1.7398118970278566E9, 0.0, 2025-02-17 17:04:57.027
85.0, 13.841369736008346, 443.08464725036174, 15.28871101886034, 2778.311838682741, -0.01600000075995922, -0.01600000075995922, 0.9920000471174717, 0.0, 0.0, 0.0, 0.0, 0.0, 1.7398118970286474E9, 0.0, 2025-02-17 17:04:57.028
85.0, 7.980946505442262, 479.2924886713736, 12.154674855992198, 2875.8502994771115, -0.01600000075995922, -0.01600000075995922, 0.9920000471174717, 0.0, 0.0, 0.0, 0.0, 0.0, 1.739811897028698E9, 0.0, 2025-02-17 17:04:57.028
86.0, -0.40764909517019987, 490.68048403644934, 7.565817610360682, 3080.981942096725, -0.01600000075995922, -0.01600000075995922, 0.9920000471174717, 0.0, 0.0, 0.0, 0.0, 0.0, 1.7398118970292084E9, 0.0, 2025-02-17 17:04:57.029
86.0, 9.334790289402008, 470.38591692689806, 17.113782197237015, 2995.1792873633094, -0.01600000075995922, -0.01600000075995922, 0.9920000471174717, 0.0, 0.0, 0.0, 0.0, 0.0, 1.7398118970292325E9, 0.0, 2025-02-17 17:04:57.029
87.0, 15.569203515537083, 456.6230850899592, 11.040184669196606, 2786.068391190842, -0.01600000075995922, -0.01600000075995922, 0.9920000471174717, 0.0, 0.0, 0.0, 0.0, 0.0, 1.739811897058042E9, 0.0, 2025-02-17 17:04:57.058
87.0, 8.84486339520663, 478.73898347793147, 11.100023068487644, 2877.2004033611156, -0.01600000075995922, -0.01600000075995922, 0.9920000471174717, 0.0, 0.0, 0.0, 0.0, 0.0, 1.7398118970580997E9, 0.0, 2025-02-17 17:04:57.058
88.0, 0.4375682948157191, 476.4482947550714, 6.731819920241833, 3078.341572728008, -0.01600000075995922, -0.01600000075995922, 0.9920000471174717, 0.0, 0.0, 0.0, 0.0, 0.0, 1.739811897058849E9, 0.0, 2025-02-17 17:04:57.058
88.0, 6.226933426223695, 483.0791373765096, 12.379068853333592, 3000.0149780060165, -0.01600000075995922, -0.01600000075995922, 0.9920000471174717, 0.0, 0.0, 0.0, 0.0, 0.0, 1.739811897058986E9, 0.0, 2025-02-17 17:04:57.058
89.0, 13.613235838711262, 450.2128965659067, 12.977452846243978, 2779.2243742719293, -0.01600000075995922, -0.01600000075995922, 0.9920000471174717, 0.0, 0.0, 0.0, 0.0, 0.0, 1.7398118970877345E9, 0.0, 2025-02-17 17:04:57.087
89.0, 5.422854935750365, 473.9406918347813, 10.228626378811896, 2865.5244356994517, -0.01600000075995922, -0.01600000075995922, 0.9920000471174717, 0.0, 0.0, 0.0, 0.0, 0.0, 1.7398118970877783E9, 0.0, 2025-02-17 17:04:57.087
90.0, -1.6343362806364894, 494.90283108642325, 2.539392069913447, 3077.3205800401047, -0.01600000075995922, -0.01600000075995922, 0.9920000471174717, 0.0, 0.0, 0.0, 0.0, 0.0, 1.7398118970880384E9, 0.0, 2025-02-17 17:04:57.088
90.0, 7.285325113683939, 474.7017614757642, 15.131635220721364, 2989.3637429322116, -0.01600000075995922, -0.01600000075995922, 0.9920000471174717, 0.0, 0.0, 0.0, 0.0, 0.0, 1.739811897088064E9, 0.0, 2025-02-17 17:04:57.088
91.0, 18.018837986513972, 442.2095106607303, 16.721092701889575, 2776.3745705056936, -0.01600000075995922, -0.03200000151991844, 0.9920000471174717, 0.0, 0.0, 0.0, 0.0, 0.0, 1.7398118970886E9, 0.0, 2025-02-17 17:04:57.088
91.0, 6.316691025160253, 485.4782831980847, 9.215113490819931, 2874.1411651973613, -0.01600000075995922, -0.03200000151991844, 0.9920000471174717, 0.0, 0.0, 0.0, 0.0, 0.0, 1.739811897088658E9, 0.0, 2025-02-17 17:04:57.088
92.0, -0.03739899955689907, 468.5234467489645, 10.194967279210687, 3077.788067534566, -0.01600000075995922, -0.03200000151991844, 0.9920000471174717, 0.0, 0.0, 0.0, 0.0, 0.0, 1.739811897089317E9, 0.0, 2025-02-17 17:04:57.089
92.0, 9.200153890997171, 485.83544364385307, 15.038137721829116, 2993.8628425789066, -0.01600000075995922, -0.03200000151991844, 0.9920000471174717, 0.0, 0.0, 0.0, 0.0, 0.0, 1.739811897089368E9, 0.0, 2025-02-17 17:04:57.089
93.0, 10.647495173849165, 457.6702570775524, 15.928233911283314, 2780.383743258193, -0.01600000075995922, -0.03200000151991844, 0.9920000471174717, 0.0, 0.0, 0.0, 0.0, 0.0, 1.7398118971176956E9, 0.0, 2025-02-17 17:04:57.117
93.0, 9.346009989269078, 475.440391717013, 10.557737574912608, 2871.706490326207, -0.01600000075995922, -0.03200000151991844, 0.9920000471174717, 0.0, 0.0, 0.0, 0.0, 0.0, 1.7398118971177783E9, 0.0, 2025-02-17 17:04:57.117
94.0, 0.4188687950372696, 492.1390450191684, 7.63687570951879, 3081.587805889547, -0.01600000075995922, -0.03200000151991844, 0.9920000471174717, 0.0, 0.0, 0.0, 0.0, 0.0, 1.7398118971178892E9, 0.0, 2025-02-17 17:04:57.117
94.0, 6.630842621438205, 489.8333966964856, 10.673674473538995, 2996.5443508471362, -0.01600000075995922, -0.03200000151991844, 0.9920000471174717, 0.0, 0.0, 0.0, 0.0, 0.0, 1.7398118971179297E9, 0.0, 2025-02-17 17:04:57.117
95.0, 12.154674855992198, 448.26814858894795, 15.928233911283314, 2779.265513171442, -0.01600000075995922, -0.03200000151991844, 0.9920000471174717, 0.0, 0.0, 0.0, 0.0, 0.0, 1.739811897147463E9, 0.0, 2025-02-17 17:04:57.147
95.0, 3.9979530526325107, 487.60254637291655, 10.957906870171428, 2871.8822656241246, -0.01600000075995922, -0.03200000151991844, 0.9920000471174717, 0.0, 0.0, 0.0, 0.0, 0.0, 1.7398118971475055E9, 0.0, 2025-02-17 17:04:57.147
96.0, 1.3201846843585372, 491.23398922989145, 9.390888788737357, 3073.5208416851237, -0.01600000075995922, -0.03200000151991844, 0.9920000471174717, 0.0, 0.0, 0.0, 0.0, 0.0, 1.7398118971477964E9, 0.0, 2025-02-17 17:04:57.147
96.0, 8.0407849047333, 480.6033236058429, 17.70468639023602, 2989.5956167294644, -0.01600000075995922, -0.03200000151991844, 0.9920000471174717, 0.0, 0.0, 0.0, 0.0, 0.0, 1.7398118971478677E9, 0.0, 2025-02-17 17:04:57.147
97.0, 7.842570207081735, 462.064639525488, 17.420453993603587, 2777.57507839147, -0.01600000075995922, -0.03200000151991844, 0.9920000471174717, 0.0, 0.0, 0.0, 0.0, 0.0, 1.739811897148494E9, 0.0, 2025-02-17 17:04:57.148
97.0, 8.152981903403997, 477.8002685890533, 9.914474782533944, 2865.012069405522, -0.01600000075995922, -0.03200000151991844, 0.9920000471174717, 0.0, 0.0, 0.0, 0.0, 0.0, 1.7398118971485305E9, 0.0, 2025-02-17 17:04:57.148
98.0, 3.377129659987986, 491.9557899213396, 14.563170427456498, 3070.0614342261106, -0.01600000075995922, -0.03200000151991844, 0.9920000471174717, 0.0, 0.0, 0.0, 0.0, 0.0, 1.7398118971491992E9, 0.0, 2025-02-17 17:04:57.149
98.0, 6.4176683239638805, 483.4531273720786, 15.32611001841724, 2985.7809187746607, -0.01600000075995922, -0.03200000151991844, 0.9920000471174717, 0.0, 0.0, 0.0, 0.0, 0.0, 1.7398118971493073E9, 0.0, 2025-02-17 17:04:57.149
99.0, 14.133081932552159, 440.4592374814674, 16.358322406187654, 2776.1800957079977, -0.01600000075995922, -0.03200000151991844, 0.9920000471174717, 0.0, 0.0, 0.0, 0.0, 0.0, 1.7398118971773438E9, 0.0, 2025-02-17 17:04:57.177
99.0, 8.762585596181452, 501.2157822116278, 13.041031145490706, 2877.185443761293, -0.01600000075995922, -0.03200000151991844, 0.9920000471174717, 0.0, 0.0, 0.0, 0.0, 0.0, 1.739811897177386E9, 0.0, 2025-02-17 17:04:57.177
100.0, 1.1144901867955923, 484.4479407602921, 9.417068088427186, 3073.8237735815346, -0.01600000075995922, -0.03200000151991844, 0.9920000471174717, 0.0, 0.0, 0.0, 0.0, 0.0, 1.7398118971782873E9, 0.0, 2025-02-17 17:04:57.178
100.0, 5.867903030477464, 466.9433390176855, 14.694066925905645, 2979.1650357530452, -0.01600000075995922, -0.03200000151991844, 0.9920000471174717, 0.0, 0.0, 0.0, 0.0, 0.0, 1.7398118971783152E9, 0.0, 2025-02-17 17:04:57.178
0.0, 17.07451324770227, -29.285286603029817, 19.85699881473556, 334.2273792400956, -0.01600000075995922, -0.03200000151991844, 0.9920000471174717, 0.0, 0.0, 0.0, 0.0, 0.0, 1.7398118971785257E9, 0.0, 2025-02-17 17:04:57.178
1.0, 8.117452853824943, -9.465686787851155, 12.033128107432276, 430.9206226444803, -0.01600000075995922, -0.03200000151991844, 0.9920000471174717, 0.0, 0.0, 0.0, 0.0, 0.0, 1.7398118972078185E9, 0.0, 2025-02-17 17:04:57.207
1.0, 3.734290105756372, -18.989342025015503, 10.735382822807878, 624.3314188029617, -0.01600000075995922, -0.03200000151991844, 0.9920000471174717, 0.0, 0.0, 0.0, 0.0, 0.0, 1.739811897207868E9, 0.0, 2025-02-17 17:04:57.207
2.0, 2.6833782182075083, -10.724163122940809, 11.49832241376862, 540.7315651434474, -0.01600000075995922, -0.03200000151991844, 0.9920000471174717, 0.0, 0.0, 0.0, 0.0, 0.0, 1.7398118972084227E9, 0.0, 2025-02-17 17:04:57.208
2.0, 6.685071170795709, -35.71043472690508, 16.34149285638705, 334.1563211409375, -0.01600000075995922, -0.03200000151991844, 0.9920000471174717, 0.0, 0.0, 0.0, 0.0, 0.0, 1.7398118972084863E9, 0.0, 2025-02-17 17:04:57.208
3.0, 7.941677555907518, 7.494759511202574, 12.799807598348707, 436.1864017820917, -0.01600000075995922, -0.03200000151991844, 0.9920000471174717, 0.0, 0.0, 0.0, 0.0, 0.0, 1.739811897208612E9, 0.0, 2025-02-17 17:04:57.208
3.0, 0.3945594453252852, -1.6810850300826132, 8.588680248241872, 630.5471325293183, -0.01600000075995922, -0.03200000151991844, 0.9920000471174717, 0.0, 0.0, 0.0, 0.0, 0.0, 1.7398118972086577E9, 0.0, 2025-02-17 17:04:57.208
4.0, 7.724763358477503, -13.979746034368873, 12.160284705925733, 534.1493412214331, -0.01600000075995922, -0.03200000151991844, 0.9920000471174717, 0.0, 0.0, 0.0, 0.0, 0.0, 1.7398118972373517E9, 0.0, 2025-02-17 17:04:57.237
4.0, 18.447056531440467, -35.14383988361806, 14.374305479694158, 334.2311191400513, -0.01600000075995922, -0.03200000151991844, 0.9920000471174717, 0.0, 0.0, 0.0, 0.0, 0.0, 1.739811897237387E9, 0.0, 2025-02-17 17:04:57.237
5.0, 6.490596373099834, 8.899091944564134, 8.304447851609439, 418.4742355919443, -0.01600000075995922, -0.03200000151991844, 0.9920000471174717, 0.0, 0.0, 0.0, 0.0, 0.0, 1.73981189723772E9, 0.0, 2025-02-17 17:04:57.237
5.0, 3.0199692142196, -13.28786454256624, 9.336660239379853, 611.2604684578255, -0.01600000075995922, -0.03200000151991844, 0.9920000471174717, 0.0, 0.0, 0.0, 0.0, 0.0, 1.739811897237739E9, 0.0, 2025-02-17 17:04:57.237
6.0, 4.272835699375719, 17.30077719502151, 16.105879159178585, 535.1778137092479, -0.01600000075995922, -0.03200000151991844, 0.9920000471174717, 0.0, 0.0, 0.0, 0.0, 0.0, 1.739811897238447E9, 0.0, 2025-02-17 17:04:57.238
6.0, 15.51871486613527, -17.603709091432393, 15.847826062235981, 322.36441658064723, -0.01600000075995922, -0.03200000151991844, 0.9920000471174717, 0.0, 0.0, 0.0, 0.0, 0.0, 1.739811897238526E9, 0.0, 2025-02-17 17:04:57.238
7.0, 10.043501331005245, 7.5452481606043875, 13.828280086163431, 418.75472808862105, -0.01600000075995922, -0.03200000151991844, 0.9920000471174717, 0.0, 0.0, 0.0, 0.0, 0.0, 1.7398118972677555E9, 0.0, 2025-02-17 17:04:57.267
7.0, 1.5763678313232958, 2.3972758715972304, 4.830080792773515, 613.4146508323029, -0.01600000075995922, -0.03200000151991844, 0.9920000471174717, 0.0, 0.0, 0.0, 0.0, 0.0, 1.7398118972679958E9, 0.0, 2025-02-17 17:04:57.267
8.0, 4.3663331982679665, 2.376706421840936, 10.088380130473524, 518.737213504035, -0.01600000075995922, -0.03200000151991844, 0.9920000471174717, 0.0, 0.0, 0.0, 0.0, 0.0, 1.7398118972680676E9, 0.0, 2025-02-17 17:04:57.268
8.0, 14.651058076415211, -18.117945335339755, 16.76036165142432, 318.4487413270399, -0.01600000075995922, -0.03200000151991844, 0.9920000471174717, 0.0, 0.0, 0.0, 0.0, 0.0, 1.7398118972681208E9, 0.0, 2025-02-17 17:04:57.268
9.0, 5.903432080056518, 13.71795303747058, 9.639592135790735, 404.1429389617406, -0.01600000075995922, -0.03200000151991844, 0.9920000471174717, 0.0, 0.0, 0.0, 0.0, 0.0, 1.7398118972686014E9, 0.0, 2025-02-17 17:04:57.268
9.0, -1.774582528974861, 4.21673720004037, 8.498922649305314, 601.4955896735191, -0.01600000075995922, -0.03200000151991844, 0.9920000471174717, 0.0, 0.0, 0.0, 0.0, 0.0, 1.739811897268648E9, 0.0, 2025-02-17 17:04:57.268
10.0, 3.6033936073072255, 17.740215439815074, 10.387572126928717, 522.2489795624278, -0.01600000075995922, -0.03200000151991844, 0.9920000471174717, 0.0, 0.0, 0.0, 0.0, 0.0, 1.7398118972974799E9, 0.0, 2025-02-17 17:04:57.297
10.0, 10.473589825909585, -4.343893798533827, 12.560454001184553, 322.0502649843693, -0.01600000075995922, -0.03200000151991844, 0.9920000471174717, 0.0, 0.0, 0.0, 0.0, 0.0, 1.7398118972975304E9, 0.0, 2025-02-17 17:04:57.297
11.0, 6.0567679782398045, -0.29919199645519257, 8.158591753337532, 406.86558612948284, -0.01600000075995922, -0.03200000151991844, 0.9920000471174717, 0.0, 0.0, 0.0, 0.0, 0.0, 1.739811897298202E9, 0.0, 2025-02-17 17:04:57.298
11.0, -0.5291958437301219, 15.845956112258136, 7.8294805572368205, 625.8647777847946, -0.01600000075995922, -0.03200000151991844, 0.9920000471174717, 0.0, 0.0, 0.0, 0.0, 0.0, 1.7398118972982433E9, 0.0, 2025-02-17 17:04:57.298
12.0, 9.467556737829, 14.022754883859307, 12.156544805970043, 533.8501492249779, -0.03200000151991844, -0.03200000151991844, 0.9920000471174717, 0.0, 0.0, 0.0, 0.0, 0.0, 1.739811897298712E9, 0.0, 2025-02-17 17:04:57.298
12.0, 12.953143496531993, -34.8876567366533, 16.74914195155725, 335.51016492489725, -0.03200000151991844, -0.03200000151991844, 0.9920000471174717, 0.0, 0.0, 0.0, 0.0, 0.0, 1.739811897298749E9, 0.0, 2025-02-17 17:04:57.298
13.0, 10.410011526662856, 5.112443239428103, 8.756975746247917, 429.82857185741886, -0.03200000151991844, -0.03200000151991844, 0.9920000471174717, 0.0, 0.0, 0.0, 0.0, 0.0, 1.7398118973281467E9, 0.0, 2025-02-17 17:04:57.328
13.0, 2.5113428202457726, -4.1643786006607115, 7.526548660825938, 627.596351464279, -0.03200000151991844, -0.03200000151991844, 0.9920000471174717, 0.0, 0.0, 0.0, 0.0, 0.0, 1.7398118973282363E9, 0.0, 2025-02-17 17:04:57.328
14.0, 6.288641775492579, -4.226086949929595, 10.166918029543012, 540.9297798410989, -0.03200000151991844, -0.03200000151991844, 0.9920000471174717, 0.0, 0.0, 0.0, 0.0, 0.0, 1.7398118973285584E9, 0.0, 2025-02-17 17:04:57.328
14.0, 6.778568669687957, -3.2443632115609944, 16.457429755013436, 341.28457045648247, -0.03200000151991844, -0.03200000151991844, 0.9920000471174717, 0.0, 0.0, 0.0, 0.0, 0.0, 1.7398118973285947E9, 0.0, 2025-02-17 17:04:57.328
15.0, 2.8030550167895854, 5.003986140713096, 13.04664099542424, 424.4730351208709, -0.03200000151991844, -0.03200000151991844, 0.9920000471174717, 0.0, 0.0, 0.0, 0.0, 0.0, 1.7398118973287668E9, 0.0, 2025-02-17 17:04:57.328
15.0, 2.1074336250312626, -1.045302037615329, 8.412904950324446, 620.3783445497975, -0.03200000151991844, -0.03200000151991844, 0.9920000471174717, 0.0, 0.0, 0.0, 0.0, 0.0, 1.7398118973287947E9, 0.0, 2025-02-17 17:04:57.328
16.0, 6.385879174340516, 9.385278938803822, 14.501462078187615, 532.6272019394673, -0.03200000151991844, -0.03200000151991844, 0.9920000471174717, 0.0, 0.0, 0.0, 0.0, 0.0, 1.7398118973573413E9, 0.0, 2025-02-17 17:04:57.357
16.0, 15.88148516183719, -35.24294723244384, 18.828526326920837, 326.4857863318175, -0.03200000151991844, -0.03200000151991844, 0.9920000471174717, 0.0, 0.0, 0.0, 0.0, 0.0, 1.739811897357379E9, 0.0, 2025-02-17 17:04:57.357
17.0, 2.814274716656655, 11.406694864854217, 9.579753736499697, 427.43129598582163, -0.03200000151991844, -0.03200000151991844, 0.9920000471174717, 0.0, 0.0, 0.0, 0.0, 0.0, 1.739811897357752E9, 0.0, 2025-02-17 17:04:57.357
17.0, 1.5053097321651876, -8.67843784717843, 5.84359368076548, 624.6493102991953, -0.03200000151991844, -0.03200000151991844, 0.9920000471174717, 0.0, 0.0, 0.0, 0.0, 0.0, 1.7398118973577735E9, 0.0, 2025-02-17 17:04:57.357
18.0, 4.0447018020786345, -14.024624833837152, 10.380092327017337, 536.3596220952459, -0.03200000151991844, -0.03200000151991844, 0.9920000471174717, 0.0, 0.0, 0.0, 0.0, 0.0, 1.739811897358414E9, 0.0, 2025-02-17 17:04:57.358
18.0, 11.337506715673953, -12.70257019950077, 12.67265099985525, 335.5288644246757, -0.03200000151991844, -0.03200000151991844, 0.9920000471174717, 0.0, 0.0, 0.0, 0.0, 0.0, 1.7398118973584344E9, 0.0, 2025-02-17 17:04:57.358
19.0, 6.198884176556021, -3.6389226568862796, 10.054721030872315, 423.64277733070776, -0.03200000151991844, -0.03200000151991844, 0.9920000471174717, 0.0, 0.0, 0.0, 0.0, 0.0, 1.739811897387794E9, 0.0, 2025-02-17 17:04:57.387
19.0, 3.1994844120927155, -20.964009201619774, 11.120592518243939, 623.519860512577, -0.03200000151991844, -0.03200000151991844, 0.9920000471174717, 0.0, 0.0, 0.0, 0.0, 0.0, 1.7398118973878684E9, 0.0, 2025-02-17 17:04:57.387
20.0, 7.05158136645332, 1.565148131456226, 10.993435919750482, 533.0124116349034, -0.03200000151991844, -0.03200000151991844, 0.9920000471174717, 0.0, 0.0, 0.0, 0.0, 0.0, 1.7398118973881295E9, 0.0, 2025-02-17 17:04:57.388
20.0, 13.342093091923743, -29.700415498111397, 13.764701786916703, 322.5327120786533, -0.03200000151991844, -0.03200000151991844, 0.9920000471174717, 0.0, 0.0, 0.0, 0.0, 0.0, 1.739811897388173E9, 0.0, 2025-02-17 17:04:57.388
21.0, 3.4388380092568696, 2.3561369720846415, 10.6531050237827, 427.23682118812576, -0.03200000151991844, -0.03200000151991844, 0.9920000471174717, 0.0, 0.0, 0.0, 0.0, 0.0, 1.7398118973893373E9, 0.0, 2025-02-17 17:04:57.389
21.0, 4.658045394811779, -15.619692164938897, 7.750942658167332, 621.2235619397834, -0.03200000151991844, -0.03200000151991844, 0.9920000471174717, 0.0, 0.0, 0.0, 0.0, 0.0, 1.739811897389637E9, 0.0, 2025-02-17 17:04:57.389
22.0, 5.065694489981979, -3.6894113062880933, 13.85071948589757, 525.7532658209093, -0.01600000075995922, -0.03200000151991844, 0.9920000471174717, 0.0, 0.0, 0.0, 0.0, 0.0, 1.7398118974175596E9, 0.0, 2025-02-17 17:04:57.417
22.0, 15.182123870123178, -7.242316264193505, 20.447903007734567, 333.4980987487361, -0.01600000075995922, -0.03200000151991844, 0.9920000471174717, 0.0, 0.0, 0.0, 0.0, 0.0, 1.7398118974176097E9, 0.0, 2025-02-17 17:04:57.417
23.0, 3.6108734072186053, 2.124263174831867, 12.833466697949916, 420.2245087712072, -0.01600000075995922, -0.03200000151991844, 0.9920000471174717, 0.0, 0.0, 0.0, 0.0, 0.0, 1.7398118974179466E9, 0.0, 2025-02-17 17:04:57.417
23.0, 1.5950673311017454, -35.833851425442845, 9.261862240266055, 614.4094642205164, -0.01600000075995922, -0.03200000151991844, 0.9920000471174717, 0.0, 0.0, 0.0, 0.0, 0.0, 1.7398118974179928E9, 0.0, 2025-02-17 17:04:57.417
24.0, 5.9782300791703165, 7.186217764858156, 13.44681029068306, 532.8702954365872, -0.01600000075995922, -0.03200000151991844, 0.9920000471174717, 0.0, 0.0, 0.0, 0.0, 0.0, 1.739811897418501E9, 0.0, 2025-02-17 17:04:57.418
24.0, 12.904524797108024, -14.523901477921754, 17.029634448233992, 332.46962626092136, -0.01600000075995922, -0.03200000151991844, 0.9920000471174717, 0.0, 0.0, 0.0, 0.0, 0.0, 1.7398118974185357E9, 0.0, 2025-02-17 17:04:57.418
25.0, 9.815367433708161, -6.0960369277745485, 9.804147733841091, 424.592711919453, -0.01600000075995922, -0.03200000151991844, 0.9920000471174717, 0.0, 0.0, 0.0, 0.0, 0.0, 1.73981189744788E9, 0.0, 2025-02-17 17:04:57.447
25.0, 2.0214159260503948, -2.614190069027245, 9.396498638670892, 623.8153126090765, -0.01600000075995922, -0.03200000151991844, 0.9920000471174717, 0.0, 0.0, 0.0, 0.0, 0.0, 1.7398118974479165E9, 0.0, 2025-02-17 17:04:57.447
26.0, 7.489149661269039, -9.246902640443295, 9.07860714243725, 531.4453935534693, -0.01600000075995922, -0.03200000151991844, 0.9920000471174717, 0.0, 0.0, 0.0, 0.0, 0.0, 1.7398118974484155E9, 0.0, 2025-02-17 17:04:57.448
26.0, 16.173197358381003, -24.213982263114303, 14.602439376991242, 333.269964851439, -0.01600000075995922, -0.03200000151991844, 0.9920000471174717, 0.0, 0.0, 0.0, 0.0, 0.0, 1.739811897448445E9, 0.0, 2025-02-17 17:04:57.448
27.0, 8.603639848064631, 17.087602897547185, 15.159684470389038, 430.3708573509939, -0.01600000075995922, -0.03200000151991844, 0.9920000471174717, 0.0, 0.0, 0.0, 0.0, 0.0, 1.7398118974486914E9, 0.0, 2025-02-17 17:04:57.448
27.0, -1.853120428044349, -30.511973788496107, 6.486856473144144, 618.6579905701801, -0.01600000075995922, -0.03200000151991844, 0.9920000471174717, 0.0, 0.0, 0.0, 0.0, 0.0, 1.7398118974487133E9, 0.0, 2025-02-17 17:04:57.448
28.0, 8.66721814731136, -5.394805686082691, 13.555267389398068, 536.4531195941381, -0.01600000075995922, -0.03200000151991844, 0.9920000471174717, 0.0, 0.0, 0.0, 0.0, 0.0, 1.7398118974776232E9, 0.0, 2025-02-17 17:04:57.477
28.0, 9.104786442127079, -9.235682940576226, 15.847826062235981, 332.5257247602567, -0.01600000075995922, -0.03200000151991844, 0.9920000471174717, 0.0, 0.0, 0.0, 0.0, 0.0, 1.7398118974776635E9, 0.0, 2025-02-17 17:04:57.477
29.0, 6.25498267589137, -7.722893408499658, 8.424124650191516, 424.5216538202949, -0.01600000075995922, -0.03200000151991844, 0.9920000471174717, 0.0, 0.0, 0.0, 0.0, 0.0, 1.739811897478084E9, 0.0, 2025-02-17 17:04:57.478
29.0, 2.653459018561989, -14.31072718044743, 7.548988060560077, 635.749333367683, -0.01600000075995922, -0.03200000151991844, 0.9920000471174717, 0.0, 0.0, 0.0, 0.0, 0.0, 1.7398118974781616E9, 0.0, 2025-02-17 17:04:57.478
30.0, 4.134459401015192, -4.063401301857084, 15.567333565559238, 539.1944662616588, -0.01600000075995922, -0.03200000151991844, 0.9920000471174717, 0.0, 0.0, 0.0, 0.0, 0.0, 1.739811897478459E9, 0.0, 2025-02-17 17:04:57.478
30.0, 12.440777202602476, -24.842285455670208, 19.800900315400213, 335.10251582972705, -0.01600000075995922, -0.03200000151991844, 0.9920000471174717, 0.0, 0.0, 0.0, 0.0, 0.0, 1.7398118974784784E9, 0.0, 2025-02-17 17:04:57.478
31.0, 4.63934589503333, 5.789365131407976, 13.633805288467556, 438.35180385643616, -0.01600000075995922, -0.03200000151991844, 0.9920000471174717, 0.0, 0.0, 0.0, 0.0, 0.0, 1.7398118975075247E9, 0.0, 2025-02-17 17:04:57.507
31.0, 1.4641708326525986, -15.335459768306464, 9.504955737385899, 626.6277173757553, -0.01600000075995922, -0.03200000151991844, 0.9920000471174717, 0.0, 0.0, 0.0, 0.0, 0.0, 1.739811897507562E9, 0.0, 2025-02-17 17:04:57.507
32.0, 3.3976991097442806, -9.4301577382721, 11.625479012262076, 536.008071499411, -0.03200000151991844, -0.03200000151991844, 0.9920000471174717, 0.0, 0.0, 0.0, 0.0, 0.0, 1.7398118975077996E9, 0.0, 2025-02-17 17:04:57.507
32.0, 16.775321251247078, -8.4484339999035, 13.581446689087898, 340.5291106654331, -0.03200000151991844, -0.03200000151991844, 0.9920000471174717, 0.0, 0.0, 0.0, 0.0, 0.0, 1.7398118975078373E9, 0.0, 2025-02-17 17:04:57.507
33.0, 4.089580601546913, -6.830927269067615, 10.170657929498702, 432.0388527312316, -0.03200000151991844, -0.03200000151991844, 0.9920000471174717, 0.0, 0.0, 0.0, 0.0, 0.0, 1.7398118975086193E9, 0.0, 2025-02-17 17:04:57.508
33.0, 1.3407541341148317, -19.926186963915825, 6.6626317710615695, 618.7627077689394, -0.03200000151991844, -0.03200000151991844, 0.9920000471174717, 0.0, 0.0, 0.0, 0.0, 0.0, 1.7398118975087042E9, 0.0, 2025-02-17 17:04:57.508
34.0, 11.707756811287254, -5.142362439073622, 17.014674848411232, 536.1015689983033, -0.03200000151991844, -0.03200000151991844, 0.9920000471174717, 0.0, 0.0, 0.0, 0.0, 0.0, 1.7398118975375707E9, 0.0, 2025-02-17 17:04:57.537
34.0, 16.083439759444445, -29.096421655267477, 18.26380143361166, 332.69402025826275, -0.03200000151991844, -0.03200000151991844, 0.9920000471174717, 0.0, 0.0, 0.0, 0.0, 0.0, 1.7398118975376873E9, 0.0, 2025-02-17 17:04:57.537
35.0, 6.905725268181413, 10.380092327017337, 7.350773362908512, 437.51032636640593, -0.03200000151991844, -0.03200000151991844, 0.9920000471174717, 0.0, 0.0, 0.0, 0.0, 0.0, 1.7398118975383632E9, 0.0, 2025-02-17 17:04:57.538
35.0, 2.4365448211319745, -22.58899573236704, 7.937937655951828, 622.869117920287, -0.03200000151991844, -0.03200000151991844, 0.9920000471174717, 0.0, 0.0, 0.0, 0.0, 0.0, 1.7398118975384128E9, 0.0, 2025-02-17 17:04:57.538
36.0, 8.020215454977006, -14.757645225152373, 13.47298959037289, 527.9822461945005, -0.03200000151991844, -0.03200000151991844, 0.9920000471174717, 0.0, 0.0, 0.0, 0.0, 0.0, 1.7398118975386887E9, 0.0, 2025-02-17 17:04:57.538
36.0, 11.206610217224807, -15.969372810795903, 15.993682160507888, 336.5274177128449, -0.03200000151991844, -0.03200000151991844, 0.9920000471174717, 0.0, 0.0, 0.0, 0.0, 0.0, 1.739811897538732E9, 0.0, 2025-02-17 17:04:57.538
37.0, 9.190804141107947, 0.3309811460785568, 12.208903405349702, 430.8121655457653, -0.03200000151991844, -0.03200000151991844, 0.9920000471174717, 0.0, 0.0, 0.0, 0.0, 0.0, 1.7398118975676477E9, 0.0, 2025-02-17 17:04:57.567
37.0, 1.6549057303927839, -37.74307035282254, 11.790034610312432, 615.0153280133381, -0.03200000151991844, -0.03200000151991844, 0.9920000471174717, 0.0, 0.0, 0.0, 0.0, 0.0, 1.7398118975677433E9, 0.0, 2025-02-17 17:04:57.567
38.0, 8.427864550147206, -2.692727968096733, 10.002362431492656, 532.7767979376949, -0.03200000151991844, -0.03200000151991844, 0.9920000471174717, 0.0, 0.0, 0.0, 0.0, 0.0, 1.7398118975679655E9, 0.0, 2025-02-17 17:04:57.567
38.0, 11.920931108761579, -25.536036897450686, 16.494828754570335, 327.05799102503806, -0.03200000151991844, -0.03200000151991844, 0.9920000471174717, 0.0, 0.0, 0.0, 0.0, 0.0, 1.7398118975680065E9, 0.0, 2025-02-17 17:04:57.568
39.0, 5.548141584265977, -4.433651397470385, 13.09151979489252, 428.12691737757996, -0.03200000151991844, -0.03200000151991844, 0.9920000471174717, 0.0, 0.0, 0.0, 0.0, 0.0, 1.7398118975685933E9, 0.0, 2025-02-17 17:04:57.568
39.0, -2.0326356259174645, -27.30500957649201, 9.202023840975016, 620.5242006480694, -0.03200000151991844, -0.03200000151991844, 0.9920000471174717, 0.0, 0.0, 0.0, 0.0, 0.0, 1.739811897568654E9, 0.0, 2025-02-17 17:04:57.568
40.0, 5.768795681651682, -22.749811430461705, 14.68471717601642, 530.6824539625086, -0.03200000151991844, -0.03200000151991844, 0.9920000471174717, 0.0, 0.0, 0.0, 0.0, 0.0, 1.739811897597452E9, 0.0, 2025-02-17 17:04:57.597
40.0, 14.164871082175523, -15.754328563343734, 16.3227933566086, 344.04087672382593, -0.03200000151991844, -0.03200000151991844, 0.9920000471174717, 0.0, 0.0, 0.0, 0.0, 0.0, 1.7398118975974927E9, 0.0, 2025-02-17 17:04:57.597
41.0, 5.271388987544924, 5.026425540447235, 9.187064241152257, 435.01581309596077, -0.03200000151991844, -0.03200000151991844, 0.9920000471174717, 0.0, 0.0, 0.0, 0.0, 0.0, 1.7398118975978372E9, 0.0, 2025-02-17 17:04:57.597
41.0, -0.22626394731923938, -46.54492489853874, 10.391312026884407, 629.5560590410605, -0.03200000151991844, -0.03200000151991844, 0.9920000471174717, 0.0, 0.0, 0.0, 0.0, 0.0, 1.739811897597896E9, 0.0, 2025-02-17 17:04:57.597
42.0, 3.375259710010141, -11.558160813059658, 10.223016528878361, 535.0543970107101, -0.01600000075995922, -0.03200000151991844, 0.9920000471174717, 0.0, 0.0, 0.0, 0.0, 0.0, 1.7398118975986311E9, 0.0, 2025-02-17 17:04:57.598
42.0, 10.69424392329529, -20.926610202062875, 16.68930355226621, 338.3412691913545, -0.01600000075995922, -0.03200000151991844, 0.9920000471174717, 0.0, 0.0, 0.0, 0.0, 0.0, 1.7398118975986774E9, 0.0, 2025-02-17 17:04:57.598
43.0, 5.578060783911496, -13.112089244648814, 13.357052691746503, 443.25481269834563, -0.01600000075995922, -0.03200000151991844, 0.9920000471174717, 0.0, 0.0, 0.0, 0.0, 0.0, 1.7398118976273694E9, 0.0, 2025-02-17 17:04:57.627
43.0, -1.0640015373937786, -25.758560944814235, 4.882439392153174, 635.7343737678602, -0.01600000075995922, -0.03200000151991844, 0.9920000471174717, 0.0, 0.0, 0.0, 0.0, 0.0, 1.7398118976274157E9, 0.0, 2025-02-17 17:04:57.627
44.0, 7.081500566098839, -23.458522472064942, 7.732243158388883, 531.9839391470887, -0.01600000075995922, -0.03200000151991844, 0.9920000471174717, 0.0, 0.0, 0.0, 0.0, 0.0, 1.739811897627945E9, 0.0, 2025-02-17 17:04:57.627
44.0, 13.315913792233914, -33.26454015588388, 13.760961886961013, 336.3553823148832, -0.01600000075995922, -0.03200000151991844, 0.9920000471174717, 0.0, 0.0, 0.0, 0.0, 0.0, 1.7398118976279805E9, 0.0, 2025-02-17 17:04:57.627
45.0, 6.677591370884329, 0.40764909517019987, 12.65021160012111, 442.17024171119556, -0.01600000075995922, -0.03200000151991844, 0.9920000471174717, 0.0, 0.0, 0.0, 0.0, 0.0, 1.7398118976284275E9, 0.0, 2025-02-17 17:04:57.628
45.0, 3.4500577091239393, -48.95716036995873, 7.186217764858156, 623.1645700167865, -0.01600000075995922, -0.03200000151991844, 0.9920000471174717, 0.0, 0.0, 0.0, 0.0, 0.0, 1.7398118976284645E9, 0.0, 2025-02-17 17:04:57.628
46.0, 10.185617529321462, -12.825986898038536, 14.811873774509877, 538.4502261704765, -0.01600000075995922, -0.03200000151991844, 0.9920000471174717, 0.0, 0.0, 0.0, 0.0, 0.0, 1.739811897657352E9, 0.0, 2025-02-17 17:04:57.657
46.0, 11.569380512926728, -5.6958676325157285, 15.731889163609594, 344.7626774152741, -0.01600000075995922, -0.03200000151991844, 0.9920000471174717, 0.0, 0.0, 0.0, 0.0, 0.0, 1.7398118976573808E9, 0.0, 2025-02-17 17:04:57.657
47.0, 2.301908422727138, -13.6730742380023, 11.270188516471535, 436.1527426824905, -0.01600000075995922, -0.03200000151991844, 0.9920000471174717, 0.0, 0.0, 0.0, 0.0, 0.0, 1.7398118976577709E9, 0.0, 2025-02-17 17:04:57.657
47.0, 0.3309811460785568, -43.95317422924563, 5.708957282360643, 631.8673172136769, -0.01600000075995922, -0.03200000151991844, 0.9920000471174717, 0.0, 0.0, 0.0, 0.0, 0.0, 1.7398118976578095E9, 0.0, 2025-02-17 17:04:57.657
48.0, 9.770488634239882, -15.309280468616635, 13.016721795778722, 539.9125270531513, -0.01600000075995922, -0.03200000151991844, 0.9920000471174717, 0.0, 0.0, 0.0, 0.0, 0.0, 1.7398118976584384E9, 0.0, 2025-02-17 17:04:57.658
48.0, 14.116252382751554, -34.0723585463129, 20.3618853087537, 340.0504034711048, -0.01600000075995922, -0.03200000151991844, 0.9920000471174717, 0.0, 0.0, 0.0, 0.0, 0.0, 1.7398118976584947E9, 0.0, 2025-02-17 17:04:57.658
49.0, 11.382385515142232, 3.534205458126962, 12.205163505394012, 442.73122670454904, -0.01600000075995922, -0.03200000151991844, 0.9920000471174717, 0.0, 0.0, 0.0, 0.0, 0.0, 1.7398118976879525E9, 0.0, 2025-02-17 17:04:57.687
49.0, 3.2892420110292733, -28.34657171415165, 13.49542899010703, 619.5892256591469, -0.01600000075995922, -0.03200000151991844, 0.9920000471174717, 0.0, 0.0, 0.0, 0.0, 0.0, 1.73981189768801E9, 0.0, 2025-02-17 17:04:57.688
50.0, 10.189357429277152, -4.859999992419034, 12.392158503178507, 527.0921500050463, -0.01600000075995922, -0.03200000151991844, 0.9920000471174717, 0.0, 0.0, 0.0, 0.0, 0.0, 1.739811897688213E9, 0.0, 2025-02-17 17:04:57.688
50.0, 9.47129663778469, 5.280738737434149, 17.325086544733495, 332.4097878616303, -0.01600000075995922, -0.03200000151991844, 0.9920000471174717, 0.0, 0.0, 0.0, 0.0, 0.0, 1.73981189768825E9, 0.0, 2025-02-17 17:04:57.688
51.0, 7.186217764858156, 29.083332005422562, 10.507248925510794, 422.8873175396584, -0.01600000075995922, -0.03200000151991844, 0.9920000471174717, 0.0, 0.0, 0.0, 0.0, 0.0, 1.7398118976888976E9, 0.0, 2025-02-17 17:04:57.688
51.0, 2.8666333160363138, 20.745225054211915, 10.896198520902544, 622.3118728268892, -0.01600000075995922, -0.03200000151991844, 0.9920000471174717, 0.0, 0.0, 0.0, 0.0, 0.0, 1.7398118976889415E9, 0.0, 2025-02-17 17:04:57.688
52.0, 6.778568669687957, 77.32243158388883, 15.89270486170426, 519.9863400892355, -0.03200000151991844, -0.03200000151991844, 0.9920000471174717, 0.0, 0.0, 0.0, 0.0, 0.0, 1.7398118977174573E9, 0.0, 2025-02-17 17:04:57.717
52.0, 14.557560577522963, 94.74101562751457, 20.006594812963158, 321.0367520963773, -0.03200000151991844, -0.03200000151991844, 0.9920000471174717, 0.0, 0.0, 0.0, 0.0, 0.0, 1.7398118977175536E9, 0.0, 2025-02-17 17:04:57.717
53.0, 4.515929196495563, 168.97989969793707, 10.27537512825802, 429.02075346698985, -0.03200000151991844, -0.03200000151991844, 0.9920000471174717, 0.0, 0.0, 0.0, 0.0, 0.0, 1.7398118977182195E9, 0.0, 2025-02-17 17:04:57.718
53.0, -0.03178914962336421, 174.20453993603587, 11.84987300960347, 610.0786600718275, -0.03200000151991844, -0.03200000151991844, 0.9920000471174717, 0.0, 0.0, 0.0, 0.0, 0.0, 1.7398118977182631E9, 0.0, 2025-02-17 17:04:57.718
54.0, 9.590973436366767, 183.53933022543788, 10.215536728966981, 509.4061631145887, -0.03200000151991844, -0.03200000151991844, 0.9920000471174717, 0.0, 0.0, 0.0, 0.0, 0.0, 1.7398118977185724E9, 0.0, 2025-02-17 17:04:57.718
54.0, 16.053520559798926, 204.28642522962764, 13.88437858549878, 324.526078755036, -0.03200000151991844, -0.03200000151991844, 0.9920000471174717, 0.0, 0.0, 0.0, 0.0, 0.0, 1.7398118977186208E9, 0.0, 2025-02-17 17:04:57.718
55.0, 5.01707579055801, 225.06343943346292, 9.344140039291233, 427.86512438068166, -0.03200000151991844, -0.03200000151991844, 0.9920000471174717, 0.0, 0.0, 0.0, 0.0, 0.0, 1.7398118977474859E9, 0.0, 2025-02-17 17:04:57.747
55.0, 0.8545671398751438, 191.50718708103523, 10.477329725865275, 610.2843545693904, -0.03200000151991844, -0.03200000151991844, 0.9920000471174717, 0.0, 0.0, 0.0, 0.0, 0.0, 1.7398118977475228E9, 0.0, 2025-02-17 17:04:57.747
56.0, 5.080654089804739, 194.04657915094867, 10.069680630695075, 526.6471019103192, -0.03200000151991844, -0.03200000151991844, 0.9920000471174717, 0.0, 0.0, 0.0, 0.0, 0.0, 1.7398118977478116E9, 0.0, 2025-02-17 17:04:57.747
56.0, 14.247148881200701, 156.9093725909479, 14.939030373003334, 322.65986867714673, -0.03200000151991844, -0.03200000151991844, 0.9920000471174717, 0.0, 0.0, 0.0, 0.0, 0.0, 1.7398118977478533E9, 0.0, 2025-02-17 17:04:57.747
57.0, 8.162331653293222, 164.80617134738714, 14.407964579295367, 436.10412398306653, -0.03200000151991844, -0.03200000151991844, 0.9920000471174717, 0.0, 0.0, 0.0, 0.0, 0.0, 1.7398118977485845E9, 0.0, 2025-02-17 17:04:57.748
57.0, -1.0228626378811896, 105.27257390273735, 2.455244320910424, 621.9603222310543, -0.03200000151991844, -0.03200000151991844, 0.9920000471174717, 0.0, 0.0, 0.0, 0.0, 0.0, 1.739811897748655E9, 0.0, 2025-02-17 17:04:57.748
58.0, 5.155452088918537, 65.8820776194334, 14.793174274731427, 526.2244932153262, -0.03200000151991844, -0.03200000151991844, 0.9920000471174717, 0.0, 0.0, 0.0, 0.0, 0.0, 1.7398118977774496E9, 0.0, 2025-02-17 17:04:57.777
58.0, 12.193943805526942, 51.88363208528608, 17.725255839992315, 342.88524763751775, -0.03200000151991844, -0.03200000151991844, 0.9920000471174717, 0.0, 0.0, 0.0, 0.0, 0.0, 1.7398118977774851E9, 0.0, 2025-02-17 17:04:57.777
59.0, 1.5240092319436371, 46.77118884585798, 10.742862622719258, 450.2372059156187, -0.03200000151991844, -0.03200000151991844, 0.9920000471174717, 0.0, 0.0, 0.0, 0.0, 0.0, 1.7398118977778144E9, 0.0, 2025-02-17 17:04:57.777
59.0, -0.4394382447935641, -30.82612538477406, 4.291535199154168, 634.5450855819508, -0.03200000151991844, -0.03200000151991844, 0.9920000471174717, 0.0, 0.0, 0.0, 0.0, 0.0, 1.7398118977778447E9, 0.0, 2025-02-17 17:04:57.777
60.0, 7.399392062332481, -22.482408583629876, 8.25956905214116, 539.108448562678, -0.03200000151991844, -0.03200000151991844, 0.9920000471174717, 0.0, 0.0, 0.0, 0.0, 0.0, 1.7398118977785692E9, 0.0, 2025-02-17 17:04:57.778
60.0, 11.752635610755533, -33.63105035154149, 13.005502095911652, 356.5059632761404, -0.03200000151991844, -0.03200000151991844, 0.9920000471174717, 0.0, 0.0, 0.0, 0.0, 0.0, 1.7398118977786388E9, 0.0, 2025-02-17 17:04:57.778
61.0, 8.016475555021316, -51.870542435441166, 10.933597520459443, 452.4848857889883, -0.03200000151991844, -0.04800000227987766, 0.9920000471174717, 0.0, 0.0, 0.0, 0.0, 0.0, 1.7398118978074355E9, 0.0, 2025-02-17 17:04:57.807
61.0, 2.178491724189371, -77.65902257990092, 10.937337420415133, 643.9284945707768, -0.03200000151991844, -0.04800000227987766, 0.9920000471174717, 0.0, 0.0, 0.0, 0.0, 0.0, 1.7398118978074625E9, 0.0, 2025-02-17 17:04:57.807
62.0, 1.9204386272467673, -95.51891481829807, 7.818260857369751, 538.5549433692358, 0.0, -0.04800000227987766, 0.9920000471174717, 0.0, 0.0, 0.0, 0.0, 0.0, 1.7398118978077948E9, 0.0, 2025-02-17 17:04:57.807
62.0, 17.06703344779089, -89.55190443899482, 15.600992665160447, 344.9122734135017, 0.0, -0.04800000227987766, 0.9920000471174717, 0.0, 0.0, 0.0, 0.0, 0.0, 1.739811897807816E9, 0.0, 2025-02-17 17:04:57.807
63.0, 8.038914954755455, -45.70344740850851, 7.160038465168327, 454.13418166944757, 0.0, -0.04800000227987766, 0.9920000471174717, 0.0, 0.0, 0.0, 0.0, 0.0, 1.7398118978086493E9, 0.0, 2025-02-17 17:04:57.808
63.0, 3.7716891053132713, -90.56541732698679, 5.6939976825378835, 630.8014457263052, 0.0, -0.04800000227987766, 0.9920000471174717, 0.0, 0.0, 0.0, 0.0, 0.0, 1.7398118978086703E9, 0.0, 2025-02-17 17:04:57.808
64.0, 10.26041552843526, -81.30542503669858, 7.597606759984046, 533.2854243316688, 0.0, -0.04800000227987766, 0.9920000471174717, 0.0, 0.0, 0.0, 0.0, 0.0, 1.7398118978376975E9, 0.0, 2025-02-17 17:04:57.837
64.0, 15.91888416139409, -58.50138505687937, 17.280207745265216, 341.84555544983596, 0.0, -0.04800000227987766, 0.9920000471174717, 0.0, 0.0, 0.0, 0.0, 0.0, 1.7398118978377464E9, 0.0, 2025-02-17 17:04:57.837
65.0, 3.061108113732189, -63.69236619537696, 8.768195446114987, 434.84377769799903, 0.0, -0.04800000227987766, 0.9920000471174717, 0.0, 0.0, 0.0, 0.0, 0.0, 1.739811897838014E9, 0.0, 2025-02-17 17:04:57.838
65.0, 1.4566910327412188, -74.12107722181827, 11.640438612084836, 623.8190525090322, 0.0, -0.04800000227987766, 0.9920000471174717, 0.0, 0.0, 0.0, 0.0, 0.0, 1.7398118978380444E9, 0.0, 2025-02-17 17:04:57.838
66.0, 4.0447018020786345, -62.28055396210402, 12.844686397816986, 525.1436621281318, 0.0, -0.04800000227987766, 0.9920000471174717, 0.0, 0.0, 0.0, 0.0, 0.0, 1.7398118978385696E9, 0.0, 2025-02-17 17:04:57.838
66.0, 13.592666388954967, -56.52297798031941, 17.52330124238506, 331.0933430772275, 0.0, -0.04800000227987766, 0.9920000471174717, 0.0, 0.0, 0.0, 0.0, 0.0, 1.7398118978385932E9, 0.0, 2025-02-17 17:04:57.838
67.0, 10.065940730739385, -12.50996535178274, 14.931550573091954, 436.773566075135, 0.0, -0.04800000227987766, 0.9920000471174717, 0.0, 0.0, 0.0, 0.0, 0.0, 1.7398118978675408E9, 1.0, 2025-02-17 17:04:57.867
67.0, 3.7155906059779227, -54.05090410960838, 9.06364754261449, 617.296666986309, 0.0, -0.04800000227987766, 0.9920000471174717, 0.0, 0.0, 0.0, 0.0, 0.0, 1.739811897867588E9, 0.0, 2025-02-17 17:04:57.867
68.0, 3.775429005268961, -48.313897577580065, 11.554420913103968, 506.65359674720094, 0.0, -0.04800000227987766, 0.9920000471174717, 0.0, 0.0, 0.0, 0.0, 0.0, 1.739811897867859E9, 0.0, 2025-02-17 17:04:57.867
68.0, 9.097306642215699, -24.062516314908862, 15.376598667819053, 321.3808228923008, 0.0, -0.04800000227987766, 0.9920000471174717, 0.0, 0.0, 0.0, 0.0, 0.0, 1.7398118978678846E9, 0.0, 2025-02-17 17:04:57.867
69.0, 4.504709496628493, -11.603039612527937, 9.789188134018332, 433.445055114571, 0.0, -0.04800000227987766, 0.9920000471174717, 0.0, 0.0, 0.0, 0.0, 0.0, 1.739811897868565E9, 0.0, 2025-02-17 17:04:57.868
69.0, 1.1350596365518868, -67.04144660569727, 6.756129269953817, 603.4702568501234, 0.0, -0.04800000227987766, 0.9920000471174717, 0.0, 0.0, 0.0, 0.0, 0.0, 1.7398118978685918E9, 0.0, 2025-02-17 17:04:57.868
70.0, 10.68302422342822, -28.901946857571602, 13.012981895823032, 521.3888025726192, 0.0, -0.04800000227987766, 0.9120000433176756, 0.0, 0.0, 0.0, 0.0, 0.0, 1.739811897898154E9, 0.0, 2025-02-17 17:04:57.898
70.0, 13.529088089708239, -33.84983449894935, 17.283947645220906, 324.0698109604418, 0.0, -0.04800000227987766, 0.9120000433176756, 0.0, 0.0, 0.0, 0.0, 0.0, 1.7398118978981917E9, 0.0, 2025-02-17 17:04:57.898
71.0, 4.990896490868181, -24.045686765108258, 7.313374363351613, 446.21681346325204, 0.0, -0.04800000227987766, 0.9120000433176756, 0.0, 0.0, 0.0, 0.0, 0.0, 1.7398118978986156E9, 0.0, 2025-02-17 17:04:57.898
71.0, 1.486610232386738, -53.26365516893566, 5.308787987101823, 623.7666939096525, 0.0, -0.04800000227987766, 0.9120000433176756, 0.0, 0.0, 0.0, 0.0, 0.0, 1.7398118978986597E9, 0.0, 2025-02-17 17:04:57.898
72.0, 5.499522884842008, -44.71798377018422, 17.220369345974177, 523.2774520502426, -0.01600000075995922, -0.04800000227987766, 0.9120000433176756, 0.0, 0.0, 0.0, 0.0, 0.0, 1.7398118978988876E9, 0.0, 2025-02-17 17:04:57.898
72.0, 16.29287415696308, -25.55660634720698, 18.476975731085986, 342.0063711479306, -0.01600000075995922, -0.04800000227987766, 0.9120000433176756, 0.0, 0.0, 0.0, 0.0, 0.0, 1.7398118978989127E9, 0.0, 2025-02-17 17:04:57.898
73.0, 8.341846851166338, -3.695021156221628, 10.896198520902544, 444.1262093880214, -0.01600000075995922, -0.04800000227987766, 0.9120000433176756, 0.0, 0.0, 0.0, 0.0, 0.0, 1.739811897927899E9, 0.0, 2025-02-17 17:04:57.927
73.0, -0.7909888406284153, -77.06250853696838, 8.427864550147206, 623.0523730181158, -0.01600000075995922, -0.04800000227987766, 0.9120000433176756, 0.0, 0.0, 0.0, 0.0, 0.0, 1.739811897927938E9, 0.0, 2025-02-17 17:04:57.927
74.0, 7.85565985692665, -43.69138123234734, 11.49084261385724, 526.5349049116485, -0.01600000075995922, -0.04800000227987766, 0.9120000433176756, 0.0, 0.0, 0.0, 0.0, 0.0, 1.7398118979281533E9, 0.0, 2025-02-17 17:04:57.928
74.0, 11.09067331859842, -25.31164290010929, 16.27417465718463, 346.15392019879073, -0.01600000075995922, -0.04800000227987766, 0.9120000433176756, 0.0, 0.0, 0.0, 0.0, 0.0, 1.7398118979281776E9, 0.0, 2025-02-17 17:04:57.928
75.0, 10.017322031315416, -39.11935353651643, 11.939630608540028, 444.4067018846981, -0.01600000075995922, -0.04800000227987766, 0.9120000433176756, 0.0, 0.0, 0.0, 0.0, 0.0, 1.7398118979284797E9, 0.0, 2025-02-17 17:04:57.928
75.0, -1.927918427158147, -72.66812608903274, 3.453797609079629, 627.4205761663616, -0.01600000075995922, -0.04800000227987766, 0.9120000433176756, 0.0, 0.0, 0.0, 0.0, 0.0, 1.739811897928524E9, 0.0, 2025-02-17 17:04:57.928
76.0, 6.8234474691562355, -60.02726423880085, 14.632358576636761, 533.5397375286557, -0.01600000075995922, -0.04800000227987766, 0.9120000433176756, 0.0, 0.0, 0.0, 0.0, 0.0, 1.7398118979575112E9, 0.0, 2025-02-17 17:04:57.957
76.0, 11.023355119396001, -57.18681022245437, 19.224955722223967, 346.789703191258, -0.01600000075995922, -0.04800000227987766, 0.9120000433176756, 0.0, 0.0, 0.0, 0.0, 0.0, 1.7398118979575467E9, 0.0, 2025-02-17 17:04:57.957
77.0, 11.195390517357737, -18.398437832016498, 11.546941113192588, 452.2305725920014, -0.01600000075995922, -0.04800000227987766, 0.9120000433176756, 0.0, 0.0, 0.0, 0.0, 0.0, 1.7398118979578495E9, 0.0, 2025-02-17 17:04:57.957
77.0, 0.11406694864854217, -87.58471706230193, 3.102247013244778, 624.5707724001259, -0.01600000075995922, -0.04800000227987766, 0.9120000433176756, 0.0, 0.0, 0.0, 0.0, 0.0, 1.7398118979578705E9, 0.0, 2025-02-17 17:04:57.957
78.0, 8.24834935227409, -57.93105031363666, 13.06534049520269, 530.3234235667624, -0.01600000075995922, -0.04800000227987766, 0.9120000433176756, 0.0, 0.0, 0.0, 0.0, 0.0, 1.739811897958671E9, 0.0, 2025-02-17 17:04:57.958
78.0, 11.113112718332559, -28.638283910695463, 14.209749881643802, 342.55239654146135, -0.01600000075995922, -0.04800000227987766, 0.9120000433176756, 0.0, 0.0, 0.0, 0.0, 0.0, 1.739811897958709E9, 0.0, 2025-02-17 17:04:57.958
79.0, 7.085240466054529, -38.01795299956575, 5.84733358072117, 440.50224633095786, -0.01600000075995922, -0.04800000227987766, 0.9120000433176756, 0.0, 0.0, 0.0, 0.0, 0.0, 1.7398118979875023E9, 0.0, 2025-02-17 17:04:57.987
79.0, 3.255582911428064, -71.73128115013242, 7.496629461180419, 616.8329193918034, -0.01600000075995922, -0.04800000227987766, 0.9120000433176756, 0.0, 0.0, 0.0, 0.0, 0.0, 1.7398118979875345E9, 0.0, 2025-02-17 17:04:57.987
80.0, 5.899692180100828, -47.78844163380563, 11.950850308407098, 517.6975213163532, -0.01600000075995922, -0.04800000227987766, 0.9760000463575125, 0.0, 0.0, 0.0, 0.0, 0.0, 1.7398118979878335E9, 0.0, 2025-02-17 17:04:57.987
80.0, 9.145925341639668, -46.61972289765254, 15.851565962191671, 326.8597763273865, -0.01600000075995922, -0.04800000227987766, 0.9760000463575125, 0.0, 0.0, 0.0, 0.0, 0.0, 1.7398118979878578E9, 0.0, 2025-02-17 17:04:57.987
81.0, 7.02914196671918, -14.450973428785801, 9.243162740487605, 450.2746049151756, -0.01600000075995922, -0.04800000227987766, 0.9760000463575125, 0.0, 0.0, 0.0, 0.0, 0.0, 1.739811897988551E9, 0.0, 2025-02-17 17:04:57.988
81.0, 1.490350132342428, -81.17639848822728, 7.111419765744358, 629.4401221424341, -0.01600000075995922, -0.04800000227987766, 0.9760000463575125, 0.0, 0.0, 0.0, 0.0, 0.0, 1.7398118979885747E9, 0.0, 2025-02-17 17:04:57.988
82.0, 10.342693327460438, -64.16733348974958, 13.035421295557171, 522.8698029550724, -0.01600000075995922, -0.04800000227987766, 0.9760000463575125, 0.0, 0.0, 0.0, 0.0, 0.0, 1.739811898017558E9, 0.0, 2025-02-17 17:04:58.017
82.0, 15.185863770078868, -35.85068097524345, 19.673743716906756, 342.5299571417272, -0.01600000075995922, -0.04800000227987766, 0.9760000463575125, 0.0, 0.0, 0.0, 0.0, 0.0, 1.7398118980176167E9, 0.0, 2025-02-17 17:04:58.017
83.0, 7.111419765744358, -25.59026544680819, 12.582893400918692, 452.18195389257744, -0.01600000075995922, -0.04800000227987766, 0.9760000463575125, 0.0, 0.0, 0.0, 0.0, 0.0, 1.7398118980180311E9, 0.0, 2025-02-17 17:04:58.018
83.0, 1.2322970353998244, -80.16849545016885, 5.3312273868359625, 630.5134734297171, -0.01600000075995922, -0.04800000227987766, 0.9760000463575125, 0.0, 0.0, 0.0, 0.0, 0.0, 1.7398118980180593E9, 0.0, 2025-02-17 17:04:58.018
84.0, 11.015875319484621, -42.34688719827682, 12.964363196399063, 531.5276713524945, -0.01600000075995922, -0.04800000227987766, 0.9760000463575125, 0.0, 0.0, 0.0, 0.0, 0.0, 1.7398118980185637E9, 0.0, 2025-02-17 17:04:58.018
84.0, 15.163424370344728, -37.50558670563623, 16.046040759887546, 331.1868405761197, -0.01600000075995922, -0.04800000227987766, 0.9760000463575125, 0.0, 0.0, 0.0, 0.0, 0.0, 1.739811898018601E9, 0.0, 2025-02-17 17:04:58.018
85.0, 6.1390457772649825, -20.711565954610705, 8.401685250457376, 457.21959913289174, -0.01600000075995922, -0.04800000227987766, 0.9760000463575125, 0.0, 0.0, 0.0, 0.0, 0.0, 1.7398118980480208E9, 0.0, 2025-02-17 17:04:58.048
85.0, 0.09536744887009263, -60.345155735034496, 6.4606771734543145, 630.3975365310907, -0.01600000075995922, -0.04800000227987766, 0.9760000463575125, 0.0, 0.0, 0.0, 0.0, 0.0, 1.7398118980480912E9, 0.0, 2025-02-17 17:04:58.048
86.0, 5.226510188076645, -47.090950292069465, 12.164024605881423, 517.2150742220692, -0.01600000075995922, -0.04800000227987766, 0.9760000463575125, 0.0, 0.0, 0.0, 0.0, 0.0, 1.7398118980484276E9, 0.0, 2025-02-17 17:04:58.048
86.0, 15.956283160950989, 6.372789524495602, 18.611612129490823, 336.13472821749747, -0.01600000075995922, -0.04800000227987766, 0.9760000463575125, 0.0, 0.0, 0.0, 0.0, 0.0, 1.7398118980484805E9, 0.0, 2025-02-17 17:04:58.048
87.0, 5.787495181430131, 3.014359364286065, 13.170057693962008, 448.5953898350708, -0.01600000075995922, -0.04800000227987766, 0.9760000463575125, 0.0, 0.0, 0.0, 0.0, 0.0, 1.7398118980487955E9, 0.0, 2025-02-17 17:04:58.048
87.0, 4.852520192507654, -64.6049017845653, 7.141338965389878, 612.7788678398356, -0.01600000075995922, -0.04800000227987766, 0.9760000463575125, 0.0, 0.0, 0.0, 0.0, 0.0, 1.7398118980489016E9, 0.0, 2025-02-17 17:04:58.048
88.0, 4.201777600217611, -5.634159283246845, 18.33111963281408, 519.7544662919827, -0.01600000075995922, -0.04800000227987766, 0.9760000463575125, 0.0, 0.0, 0.0, 0.0, 0.0, 1.739811898077464E9, 0.0, 2025-02-17 17:04:58.077
88.0, 18.2488418337889, -0.02617929968982935, 17.399884543847293, 331.46733307279646, -0.01600000075995922, -0.04800000227987766, 0.9760000463575125, 0.0, 0.0, 0.0, 0.0, 0.0, 1.7398118980774984E9, 0.0, 2025-02-17 17:04:58.077
89.0, 7.46297036157921, 1.5202693319879472, 11.352466315496713, 438.9015691499226, -0.01600000075995922, -0.04800000227987766, 0.9760000463575125, 0.0, 0.0, 0.0, 0.0, 0.0, 1.7398118980779736E9, 0.0, 2025-02-17 17:04:58.077
89.0, 1.3931127334944904, -47.0217621428892, 8.21843015262857, 623.460022113286, -0.01600000075995922, -0.04800000227987766, 0.9760000463575125, 0.0, 0.0, 0.0, 0.0, 0.0, 1.739811898078016E9, 0.0, 2025-02-17 17:04:58.078
90.0, 5.42472488572821, -23.269657524302602, 14.437883778940886, 517.7872789152898, -0.01600000075995922, -0.04800000227987766, 0.9920000471174717, 0.0, 0.0, 0.0, 0.0, 0.0, 1.7398118980789397E9, 0.0, 2025-02-17 17:04:58.078
90.0, 15.436437067110091, 0.682531741913408, 15.163424370344728, 341.9091337490827, -0.01600000075995922, -0.04800000227987766, 0.9920000471174717, 0.0, 0.0, 0.0, 0.0, 0.0, 1.7398118980790348E9, 0.0, 2025-02-17 17:04:58.079
91.0, 5.959530579391867, 13.904948035255075, 8.584940348286182, 448.84222323214635, -0.01600000075995922, -0.03200000151991844, 0.9920000471174717, 0.0, 0.0, 0.0, 0.0, 0.0, 1.7398118981076496E9, 0.0, 2025-02-17 17:04:58.107
91.0, 0.08414774900302291, -55.06441699760035, 7.593866860028356, 617.9548893785104, -0.01600000075995922, -0.03200000151991844, 0.9920000471174717, 0.0, 0.0, 0.0, 0.0, 0.0, 1.7398118981077335E9, 0.0, 2025-02-17 17:04:58.107
92.0, 11.43474411452189, -28.38771061366424, 10.970996520016342, 515.5732581415214, -0.01600000075995922, -0.03200000151991844, 0.9920000471174717, 0.0, 0.0, 0.0, 0.0, 0.0, 1.7398118981080577E9, 0.0, 2025-02-17 17:04:58.108
92.0, 13.016721795778722, 9.551704486832023, 15.86652556201443, 336.92010720819235, -0.01600000075995922, -0.03200000151991844, 0.9920000471174717, 0.0, 0.0, 0.0, 0.0, 0.0, 1.7398118981081023E9, 0.0, 2025-02-17 17:04:58.108
93.0, 12.063047307077795, -18.033797586336732, 10.772781822364777, 444.44036098429933, -0.01600000075995922, -0.03200000151991844, 0.9920000471174717, 0.0, 0.0, 0.0, 0.0, 0.0, 1.739811898108528E9, 0.0, 2025-02-17 17:04:58.108
93.0, 0.9405848388560116, -64.87417458137497, 9.598453236278147, 621.1525038406253, -0.01600000075995922, -0.03200000151991844, 0.9920000471174717, 0.0, 0.0, 0.0, 0.0, 0.0, 1.739811898108565E9, 0.0, 2025-02-17 17:04:58.108
94.0, 7.709803758654743, -42.19542125007138, 13.618845688644797, 517.869556714315, -0.01600000075995922, -0.03200000151991844, 0.9920000471174717, 0.0, 0.0, 0.0, 0.0, 0.0, 1.7398118981374848E9, 0.0, 2025-02-17 17:04:58.137
94.0, 13.297214292455465, -5.568711034022272, 14.733335875440389, 331.1644011763856, -0.01600000075995922, -0.03200000151991844, 0.9920000471174717, 0.0, 0.0, 0.0, 0.0, 0.0, 1.7398118981375918E9, 0.0, 2025-02-17 17:04:58.137
95.0, 3.6894113062880933, -7.2628857139497995, 11.281408216338605, 454.743785362225, -0.01600000075995922, -0.03200000151991844, 0.9920000471174717, 0.0, 0.0, 0.0, 0.0, 0.0, 1.7398118981380951E9, 0.0, 2025-02-17 17:04:58.138
95.0, 3.5585148078389466, -67.84739504614845, 8.23712965240702, 622.9252164196223, -0.01600000075995922, -0.03200000151991844, 0.9920000471174717, 0.0, 0.0, 0.0, 0.0, 0.0, 1.7398118981381695E9, 0.0, 2025-02-17 17:04:58.138
96.0, 5.147972289007157, -55.05319729773328, 11.217829917091876, 516.7812458272092, -0.01600000075995922, -0.03200000151991844, 0.9920000471174717, 0.0, 0.0, 0.0, 0.0, 0.0, 1.7398118981386197E9, 0.0, 2025-02-17 17:04:58.138
96.0, 11.561900713015348, -5.550011534243822, 17.96086953720078, 342.3429621439427, -0.01600000075995922, -0.03200000151991844, 0.9920000471174717, 0.0, 0.0, 0.0, 0.0, 0.0, 1.7398118981386538E9, 0.0, 2025-02-17 17:04:58.138
97.0, 7.945417455863208, -9.794797983951867, 11.565640612971038, 449.5640239235945, -0.01600000075995922, -0.03200000151991844, 0.9920000471174717, 0.0, 0.0, 0.0, 0.0, 0.0, 1.7398118981676345E9, 0.0, 2025-02-17 17:04:58.167
97.0, -3.81656790478155, -64.46278558624908, 7.3844324625097215, 622.1286177290604, -0.01600000075995922, -0.03200000151991844, 0.9920000471174717, 0.0, 0.0, 0.0, 0.0, 0.0, 1.739811898167748E9, 0.0, 2025-02-17 17:04:58.167
98.0, 8.169811453204602, -32.991527459118515, 11.431004214566201, 515.1057706470601, -0.01600000075995922, -0.03200000151991844, 0.9920000471174717, 0.0, 0.0, 0.0, 0.0, 0.0, 1.739811898168142E9, 0.0, 2025-02-17 17:04:58.168
98.0, 11.584340112749487, -5.22090033814311, 20.141231211367995, 327.35344312153757, -0.01600000075995922, -0.03200000151991844, 0.9920000471174717, 0.0, 0.0, 0.0, 0.0, 0.0, 1.739811898168178E9, 0.0, 2025-02-17 17:04:58.168
99.0, 8.480223149526864, 7.889318956527859, 11.165471317712218, 452.1295952931978, -0.01600000075995922, -0.03200000151991844, 0.9920000471174717, 0.0, 0.0, 0.0, 0.0, 0.0, 1.7398118981686077E9, 0.0, 2025-02-17 17:04:58.168
99.0, 1.325794534292072, -59.08667939994484, 5.42098498577252, 620.9580290429294, -0.01600000075995922, -0.03200000151991844, 0.9920000471174717, 0.0, 0.0, 0.0, 0.0, 0.0, 1.7398118981686504E9, 0.0, 2025-02-17 17:04:58.168
100.0, 9.44511733809486, -39.190411635674536, 14.475282778497785, 520.0199991888367, -0.01600000075995922, -0.03200000151991844, 0.9920000471174717, 0.0, 0.0, 0.0, 0.0, 0.0, 1.7398118981975355E9, 0.0, 2025-02-17 17:04:58.197
100.0, 13.577706789132208, 14.138691782485694, 16.446210055146366, 343.4163134312257, -0.01600000075995922, -0.03200000151991844, 0.9920000471174717, 0.0, 0.0, 0.0, 0.0, 0.0, 1.7398118981975837E9, 0.0, 2025-02-17 17:04:58.197
0.0, 6.873936118558049, -479.3224078710191, 14.87358212377876, -36.252720220480114, -0.01600000075995922, -0.03200000151991844, 0.9920000471174717, 0.0, 0.0, 0.0, 0.0, 0.0, 1.7398118981979005E9, 0.0, 2025-02-17 17:04:58.197
1.0, 0.8826163895428181, -558.40446238406, 7.520938810892403, 131.5771602410823, -0.01600000075995922, -0.03200000151991844, 0.9920000471174717, 0.0, 0.0, 0.0, 0.0, 0.0, 1.7398118981985817E9, 0.0, 2025-02-17 17:04:58.198
1.0, 7.214267014525831, -521.5365286208689, 11.563770662993193, 40.99117346433923, -0.01600000075995922, -0.03200000151991844, 0.9920000471174717, 0.0, 0.0, 0.0, 0.0, 0.0, 1.739811898198619E9, 0.0, 2025-02-17 17:04:58.198
2.0, 10.47171987593174, -485.01079570362344, 16.765971501357853, -147.5540128517896, -0.01600000075995922, -0.03200000151991844, 0.9920000471174717, 0.0, 0.0, 0.0, 0.0, 0.0, 1.73981189819918E9, 0.0, 2025-02-17 17:04:58.199
2.0, 11.788164660334587, -494.0987525959499, 11.395475164987147, -35.92734892433509, -0.01600000075995922, -0.03200000151991844, 0.9920000471174717, 0.0, 0.0, 0.0, 0.0, 0.0, 1.7398118981992238E9, 0.0, 2025-02-17 17:04:58.199
3.0, 0.643262792378664, -552.072811759077, 4.42430164758116, 139.22525565046817, -0.01600000075995922, -0.03200000151991844, 0.9920000471174717, 0.0, 0.0, 0.0, 0.0, 0.0, 1.7398118982275736E9, 0.0, 2025-02-17 17:04:58.227
3.0, 9.095436692237854, -532.1428848952055, 16.1189688090235, 35.91612922446802, -0.01600000075995922, -0.03200000151991844, 0.9920000471174717, 0.0, 0.0, 0.0, 0.0, 0.0, 1.739811898227609E9, 0.0, 2025-02-17 17:04:58.227
4.0, 15.606602515093982, -490.79268103512004, 19.881308164447546, -132.2877412326634, -0.01600000075995922, -0.03200000151991844, 0.9920000471174717, 0.0, 0.0, 0.0, 0.0, 0.0, 1.7398118982280507E9, 0.0, 2025-02-17 17:04:58.228
4.0, 6.283031925559044, -477.39448944386095, 12.85403614770621, -28.226894915569574, -0.01600000075995922, -0.03200000151991844, 0.9920000471174717, 0.0, 0.0, 0.0, 0.0, 0.0, 1.7398118982281098E9, 0.0, 2025-02-17 17:04:58.228
5.0, 1.6380761805921793, -562.4603838860057, 5.991319729015231, 134.82339340262115, -0.01600000075995922, -0.03200000151991844, 0.9920000471174717, 0.0, 0.0, 0.0, 0.0, 0.0, 1.7398118982576668E9, 0.0, 2025-02-17 17:04:58.257
5.0, 8.493312799371779, -514.0174597599544, 14.544470927678049, 27.9576221187599, -0.01600000075995922, -0.03200000151991844, 0.9920000471174717, 0.0, 0.0, 0.0, 0.0, 0.0, 1.7398118982577488E9, 0.0, 2025-02-17 17:04:58.257
6.0, 13.242985743097961, -482.3348972853273, 14.372435529716313, -152.2924660956487, -0.01600000075995922, -0.03200000151991844, 0.9920000471174717, 0.0, 0.0, 0.0, 0.0, 0.0, 1.7398118982579012E9, 0.0, 2025-02-17 17:04:58.257
6.0, 6.82905731908977, -491.0077252825722, 9.151535191573203, -47.468680187594146, -0.01600000075995922, -0.03200000151991844, 0.9920000471174717, 0.0, 0.0, 0.0, 0.0, 0.0, 1.739811898257952E9, 0.0, 2025-02-17 17:04:58.257
7.0, 0.13837629836052656, -551.831588211935, 5.325617536902428, 137.22066927421838, -0.01600000075995922, -0.03200000151991844, 0.9920000471174717, 0.0, 0.0, 0.0, 0.0, 0.0, 1.7398118982588148E9, 0.0, 2025-02-17 17:04:58.258
7.0, 7.670534809119999, -531.8941815481521, 15.28497111890465, 25.680023045744747, -0.01600000075995922, -0.03200000151991844, 0.9920000471174717, 0.0, 0.0, 0.0, 0.0, 0.0, 1.7398118982588704E9, 0.0, 2025-02-17 17:04:58.258
8.0, 9.589103486388922, -487.8175906203687, 15.875875311903656, -164.47706015128642, -0.01600000075995922, -0.03200000151991844, 0.9920000471174717, 0.0, 0.0, 0.0, 0.0, 0.0, 1.73981189825939E9, 0.0, 2025-02-17 17:04:58.259
8.0, 7.1020700158551335, -468.4168596002273, 13.759091936983168, -29.62187759904191, -0.01600000075995922, -0.03200000151991844, 0.9920000471174717, 0.0, 0.0, 0.0, 0.0, 0.0, 1.7398118982594488E9, 0.0, 2025-02-17 17:04:58.259
9.0, -0.8003385905176401, -552.8918498493731, 7.375082712620497, 128.88817217294127, -0.01600000075995922, -0.03200000151991844, 0.9920000471174717, 0.0, 0.0, 0.0, 0.0, 0.0, 1.739811898287428E9, 0.0, 2025-02-17 17:04:58.287
9.0, 9.005679093301296, -525.0595143791288, 11.369295865297318, 25.713682145345956, -0.01600000075995922, -0.03200000151991844, 0.9920000471174717, 0.0, 0.0, 0.0, 0.0, 0.0, 1.7398118982874644E9, 0.0, 2025-02-17 17:04:58.287
10.0, 13.538437839597464, -455.4581062537618, 18.591042679734528, -151.86237760074437, -0.01600000075995922, -0.03200000151991844, 1.008000047877431, 0.0, 0.0, 0.0, 0.0, 0.0, 1.7398118982878728E9, 0.0, 2025-02-17 17:04:58.287
10.0, 6.784178519621491, -485.41096499888226, 11.616129262372851, -48.57569057447836, -0.01600000075995922, -0.03200000151991844, 1.008000047877431, 0.0, 0.0, 0.0, 0.0, 0.0, 1.739811898287898E9, 0.0, 2025-02-17 17:04:58.287
11.0, 3.653882256709039, -547.188502416946, 7.685494408942759, 126.67789129912853, -0.01600000075995922, -0.03200000151991844, 1.008000047877431, 0.0, 0.0, 0.0, 0.0, 0.0, 1.73981189831757E9, 0.0, 2025-02-17 17:04:58.317
11.0, 8.4484339999035, -516.6447394788265, 18.015098086558282, 22.632004581857473, -0.01600000075995922, -0.03200000151991844, 1.008000047877431, 0.0, 0.0, 0.0, 0.0, 0.0, 1.7398118983176205E9, 0.0, 2025-02-17 17:04:58.317
12.0, 8.47835319954902, -476.67081880243495, 13.400061541236937, -152.71507479064167, -0.01600000075995922, -0.03200000151991844, 1.008000047877431, 0.0, 0.0, 0.0, 0.0, 0.0, 1.7398118983179789E9, 0.0, 2025-02-17 17:04:58.317
12.0, 6.799138119444251, -474.24549368117005, 14.439753728918731, -39.7046478795819, -0.01600000075995922, -0.03200000151991844, 1.008000047877431, 0.0, 0.0, 0.0, 0.0, 0.0, 1.7398118983180149E9, 0.0, 2025-02-17 17:04:58.318
13.0, -1.0808310871943831, -545.0436697923578, 9.099176592193544, 136.4016311839223, -0.01600000075995922, -0.03200000151991844, 1.008000047877431, 0.0, 0.0, 0.0, 0.0, 0.0, 1.7398118983187604E9, 0.0, 2025-02-17 17:04:58.318
13.0, 5.007726040668786, -526.6358822104521, 10.699853773228824, 23.854951867368072, -0.01600000075995922, -0.03200000151991844, 1.008000047877431, 0.0, 0.0, 0.0, 0.0, 0.0, 1.7398118983188045E9, 0.0, 2025-02-17 17:04:58.318
14.0, 12.992412446066737, -471.50414701364934, 15.546764115802944, -152.73003439046443, -0.01600000075995922, -0.03200000151991844, 1.008000047877431, 0.0, 0.0, 0.0, 0.0, 0.0, 1.7398118983193076E9, 0.0, 2025-02-17 17:04:58.319
14.0, 6.002539428882301, -474.993473672308, 11.967679858207703, -41.028572463896126, -0.01600000075995922, -0.03200000151991844, 1.008000047877431, 0.0, 0.0, 0.0, 0.0, 0.0, 1.7398118983193538E9, 0.0, 2025-02-17 17:04:58.319
15.0, 0.684401691891253, -569.3044008049183, 4.050311652012169, 134.318506908603, -0.01600000075995922, -0.03200000151991844, 1.008000047877431, 0.0, 0.0, 0.0, 0.0, 0.0, 1.7398118983475475E9, 0.0, 2025-02-17 17:04:58.347
15.0, 3.781038855202496, -526.5797837111168, 10.722293172962964, 29.775213497225195, -0.01600000075995922, -0.03200000151991844, 1.008000047877431, 0.0, 0.0, 0.0, 0.0, 0.0, 1.7398118983476784E9, 0.0, 2025-02-17 17:04:58.347
16.0, 11.384255465120077, -473.7368672871962, 16.324663306586444, -151.50708710495383, -0.01600000075995922, -0.03200000151991844, 1.008000047877431, 0.0, 0.0, 0.0, 0.0, 0.0, 1.739811898347952E9, 0.0, 2025-02-17 17:04:58.347
16.0, 8.126802603714168, -483.28857177402824, 10.153828379698098, -30.059445893857628, -0.01600000075995922, -0.03200000151991844, 1.008000047877431, 0.0, 0.0, 0.0, 0.0, 0.0, 1.739811898347969E9, 0.0, 2025-02-17 17:04:58.347
17.0, 0.2655328968539834, -562.5314419851638, 5.692127732560039, 147.43433605320752, -0.01600000075995922, -0.03200000151991844, 1.008000047877431, 0.0, 0.0, 0.0, 0.0, 0.0, 1.739811898378294E9, 0.0, 2025-02-17 17:04:58.378
17.0, 4.558938045985997, -538.2295720730908, 10.46424007602036, 38.35828389553353, -0.01600000075995922, -0.03200000151991844, 1.008000047877431, 0.0, 0.0, 0.0, 0.0, 0.0, 1.7398118983783507E9, 0.0, 2025-02-17 17:04:58.378
18.0, 8.646648697555065, -474.3689103797078, 16.694913402199745, -145.41479007713497, -0.01600000075995922, -0.03200000151991844, 1.008000047877431, 0.0, 0.0, 0.0, 0.0, 0.0, 1.7398118983784802E9, 0.0, 2025-02-17 17:04:58.378
18.0, 8.986979593522847, -477.32717124465853, 10.568957274779677, -28.33909191424027, -0.01600000075995922, -0.03200000151991844, 1.008000047877431, 0.0, 0.0, 0.0, 0.0, 0.0, 1.7398118983785152E9, 0.0, 2025-02-17 17:04:58.378
19.0, -1.5071796821430326, -578.9084638911299, 4.491619846783578, 142.3256327137351, -0.01600000075995922, -0.03200000151991844, 1.008000047877431, 0.0, 0.0, 0.0, 0.0, 0.0, 1.7398118983786893E9, 0.0, 2025-02-17 17:04:58.378
19.0, 5.104963439516723, -532.9263939359225, 13.388841841369867, 39.472774082329124, -0.01600000075995922, -0.03200000151991844, 1.008000047877431, 0.0, 0.0, 0.0, 0.0, 0.0, 1.7398118983787224E9, 0.0, 2025-02-17 17:04:58.378
20.0, 12.311750654131174, -479.5636314181611, 14.937160423025489, -144.76030758488923, -0.01600000075995922, -0.03200000151991844, 0.9920000471174717, 0.0, 0.0, 0.0, 0.0, 0.0, 1.7398118983792562E9, 0.0, 2025-02-17 17:04:58.379
20.0, 6.959953817538917, -494.0407841466367, 15.913274311460555, -34.13593684555963, -0.01600000075995922, -0.03200000151991844, 0.9920000471174717, 0.0, 0.0, 0.0, 0.0, 0.0, 1.7398118983792863E9, 0.0, 2025-02-17 17:04:58.379
21.0, 0.3777298955246806, -563.0325885792263, 6.600923421792686, 138.30150036141276, -0.01600000075995922, -0.03200000151991844, 0.9920000471174717, 0.0, 0.0, 0.0, 0.0, 0.0, 1.7398118984074848E9, 0.0, 2025-02-17 17:04:58.407
21.0, 8.751365896314383, -532.0624770461582, 14.810003824532032, 26.910450131166726, -0.01600000075995922, -0.03200000151991844, 0.9920000471174717, 0.0, 0.0, 0.0, 0.0, 0.0, 1.739811898407536E9, 0.0, 2025-02-17 17:04:58.407
22.0, 15.890834911726415, -483.47182687185705, 15.965632910840213, -151.46594820544124, -0.01600000075995922, -0.03200000151991844, 0.9920000471174717, 0.0, 0.0, 0.0, 0.0, 0.0, 1.739811898407853E9, 0.0, 2025-02-17 17:04:58.407
22.0, 8.803724495694041, -474.22492423141375, 16.53409770410508, -34.999853735323995, -0.01600000075995922, -0.03200000151991844, 0.9920000471174717, 0.0, 0.0, 0.0, 0.0, 0.0, 1.7398118984078836E9, 0.0, 2025-02-17 17:04:58.407
23.0, -1.043432087637484, -572.7133196145296, 10.565217374823987, 130.87031914945692, -0.01600000075995922, -0.03200000151991844, 0.9920000471174717, 0.0, 0.0, 0.0, 0.0, 0.0, 1.7398118984374952E9, 0.0, 2025-02-17 17:04:58.437
23.0, 2.737606767565012, -539.6526040062308, 13.69551363773644, 16.64816465275362, -0.01600000075995922, -0.03200000151991844, 0.9920000471174717, 0.0, 0.0, 0.0, 0.0, 0.0, 1.7398118984375288E9, 0.0, 2025-02-17 17:04:58.437
24.0, 9.499345887452364, -456.76707123825327, 20.247818360105157, -155.69577505532652, -0.01600000075995922, -0.03200000151991844, 0.9920000471174717, 0.0, 0.0, 0.0, 0.0, 0.0, 1.7398118984378705E9, 0.0, 2025-02-17 17:04:58.437
24.0, 8.205340502783656, -488.2794682648964, 10.755952272564173, -45.76702570775524, -0.01600000075995922, -0.03200000151991844, 0.9920000471174717, 0.0, 0.0, 0.0, 0.0, 0.0, 1.739811898437892E9, 0.0, 2025-02-17 17:04:58.437
25.0, -0.6170834926888347, -559.7321268683299, 5.759445931762457, 138.3239397611469, -0.01600000075995922, -0.03200000151991844, 0.9920000471174717, 0.0, 0.0, 0.0, 0.0, 0.0, 1.7398118984385488E9, 0.0, 2025-02-17 17:04:58.438
25.0, 7.079630616120994, -526.8359668580815, 12.693220449611545, 27.078745629172772, -0.01600000075995922, -0.03200000151991844, 0.9920000471174717, 0.0, 0.0, 0.0, 0.0, 0.0, 1.7398118984385722E9, 0.0, 2025-02-17 17:04:58.438
26.0, 11.69092726148665, -480.7286102543585, 17.28955749515444, -161.9301882814616, -0.01600000075995922, -0.03200000151991844, 0.9920000471174717, 0.0, 0.0, 0.0, 0.0, 0.0, 1.7398118984393191E9, 0.0, 2025-02-17 17:04:58.439
26.0, 4.229826849885285, -476.0443855598569, 11.212220067158341, -29.92854939540848, -0.01600000075995922, -0.03200000151991844, 0.9920000471174717, 0.0, 0.0, 0.0, 0.0, 0.0, 1.739811898439341E9, 0.0, 2025-02-17 17:04:58.439
27.0, -1.772712578997016, -567.3671326278709, 8.02208540495485, 137.55726027023047, -0.01600000075995922, -0.03200000151991844, 0.9920000471174717, 0.0, 0.0, 0.0, 0.0, 0.0, 1.739811898467583E9, 0.0, 2025-02-17 17:04:58.467
27.0, 4.338283948600292, -546.0347432806157, 11.219699867069721, 16.502308554481715, -0.01600000075995922, -0.03200000151991844, 0.9920000471174717, 0.0, 0.0, 0.0, 0.0, 0.0, 1.739811898467706E9, 0.0, 2025-02-17 17:04:58.467
28.0, 15.142854920588434, -470.6664094235748, 19.36146207060665, -147.93174274731427, -0.01600000075995922, -0.03200000151991844, 0.9920000471174717, 0.0, 0.0, 0.0, 0.0, 0.0, 1.7398118984678762E9, 0.0, 2025-02-17 17:04:58.467
28.0, 6.922554817982018, -471.8519577095285, 10.385702176950872, -38.78463249048218, -0.01600000075995922, -0.03200000151991844, 0.9920000471174717, 0.0, 0.0, 0.0, 0.0, 0.0, 1.7398118984679391E9, 0.0, 2025-02-17 17:04:58.467
29.0, 0.9574143886566162, -578.7588678929023, 4.270965749397874, 135.7321890918538, -0.01600000075995922, -0.03200000151991844, 0.9920000471174717, 0.0, 0.0, 0.0, 0.0, 0.0, 1.7398118984982607E9, 0.0, 2025-02-17 17:04:58.498
29.0, 8.291358201764524, -527.4437006008811, 14.230319331400096, 20.122531711589545, -0.01600000075995922, -0.03200000151991844, 0.9920000471174717, 0.0, 0.0, 0.0, 0.0, 0.0, 1.7398118984983127E9, 0.0, 2025-02-17 17:04:58.498
30.0, 8.915921494364738, -472.0052936077118, 13.30656404234469, -152.41962269414216, -0.01600000075995922, -0.03200000151991844, 0.9920000471174717, 0.0, 0.0, 0.0, 0.0, 0.0, 1.7398118984984996E9, 0.0, 2025-02-17 17:04:58.498
30.0, 6.4588072234764695, -482.5218922831118, 17.162400896660984, -29.5508194998838, -0.01600000075995922, -0.03200000151991844, 0.9920000471174717, 0.0, 0.0, 0.0, 0.0, 0.0, 1.7398118984985445E9, 0.0, 2025-02-17 17:04:58.498
31.0, 1.2341669853776693, -571.9223307739012, 7.610696409828961, 140.8034934317693, -0.01600000075995922, -0.03200000151991844, 0.9920000471174717, 0.0, 0.0, 0.0, 0.0, 0.0, 1.7398118984987805E9, 0.0, 2025-02-17 17:04:58.498
31.0, 5.164801838807762, -549.4118729406036, 12.356629453599453, 25.448149248491973, -0.01600000075995922, -0.03200000151991844, 0.9920000471174717, 0.0, 0.0, 0.0, 0.0, 0.0, 1.739811898498824E9, 0.0, 2025-02-17 17:04:58.498
32.0, 14.581869927234948, -478.64735592901707, 16.201246608048677, -147.64003055077046, -0.01600000075995922, -0.03200000151991844, 0.9920000471174717, 0.0, 0.0, 0.0, 0.0, 0.0, 1.7398118984991555E9, 0.0, 2025-02-17 17:04:58.499
32.0, 8.994459393434227, -470.5747818746604, 8.732666396535933, -35.66181602748111, -0.01600000075995922, -0.03200000151991844, 0.9920000471174717, 0.0, 0.0, 0.0, 0.0, 0.0, 1.7398118984991894E9, 0.0, 2025-02-17 17:04:58.499
33.0, 0.886356289498508, -582.9681252930313, 4.338283948600292, 131.33780664391816, -0.01600000075995922, -0.03200000151991844, 0.9920000471174717, 0.0, 0.0, 0.0, 0.0, 0.0, 1.7398118985273955E9, 0.0, 2025-02-17 17:04:58.527
33.0, 7.793951507657766, -527.3745124517009, 12.386548653244972, 16.427510555367917, -0.01600000075995922, -0.03200000151991844, 0.9920000471174717, 0.0, 0.0, 0.0, 0.0, 0.0, 1.7398118985274315E9, 0.0, 2025-02-17 17:04:58.527
34.0, 13.811450536362827, -447.495859248098, 19.877568264491856, -158.3361444240436, -0.01600000075995922, -0.03200000151991844, 0.9920000471174717, 0.0, 0.0, 0.0, 0.0, 0.0, 1.7398118985279071E9, 0.0, 2025-02-17 17:04:58.527
34.0, 6.215713726356626, -479.71135746641085, 6.249372825957835, -37.378430107142776, -0.01600000075995922, -0.03200000151991844, 0.9920000471174717, 0.0, 0.0, 0.0, 0.0, 0.0, 1.7398118985279312E9, 0.0, 2025-02-17 17:04:58.527
35.0, 1.8063716785982251, -556.7925655031577, 11.010265469551086, 132.0596073353663, -0.01600000075995922, -0.03200000151991844, 0.9920000471174717, 0.0, 0.0, 0.0, 0.0, 0.0, 1.739811898557566E9, 0.0, 2025-02-17 17:04:58.557
35.0, 8.713966896757483, -523.862746393308, 12.726879549212754, 12.351019603665918, -0.01600000075995922, -0.03200000151991844, 0.9920000471174717, 0.0, 0.0, 0.0, 0.0, 0.0, 1.7398118985576017E9, 0.0, 2025-02-17 17:04:58.557
36.0, 9.993012681603432, -455.3085102555342, 14.574390127323568, -159.60397050902247, -0.01600000075995922, -0.03200000151991844, 0.9920000471174717, 0.0, 0.0, 0.0, 0.0, 0.0, 1.7398118985580597E9, 0.0, 2025-02-17 17:04:58.558
36.0, 9.035598292946815, -456.4304802422412, 12.932574046775699, -27.52379372389987, -0.01600000075995922, -0.03200000151991844, 0.9920000471174717, 0.0, 0.0, 0.0, 0.0, 0.0, 1.7398118985580912E9, 0.0, 2025-02-17 17:04:58.558
37.0, 2.176621774211526, -578.5438236454502, 5.7370065320283175, 130.73942265100777, -0.01600000075995922, -0.03200000151991844, 0.9920000471174717, 0.0, 0.0, 0.0, 0.0, 0.0, 1.7398118985591295E9, 0.0, 2025-02-17 17:04:58.559
37.0, 10.157568279653788, -523.4812765978277, 13.074690245091915, 16.831419750582427, -0.01600000075995922, -0.03200000151991844, 0.9920000471174717, 0.0, 0.0, 0.0, 0.0, 0.0, 1.739811898559244E9, 0.0, 2025-02-17 17:04:58.559
38.0, 15.255051919259131, -446.28039176249877, 18.13103498518467, -156.739207142964, -0.01600000075995922, -0.03200000151991844, 0.9920000471174717, 0.0, 0.0, 0.0, 0.0, 0.0, 1.739811898559542E9, 0.0, 2025-02-17 17:04:58.559
38.0, 5.314397837035358, -468.8245086953975, 14.181700631976128, -39.95896107656881, -0.01600000075995922, -0.03200000151991844, 0.9920000471174717, 0.0, 0.0, 0.0, 0.0, 0.0, 1.7398118985595844E9, 0.0, 2025-02-17 17:04:58.559
39.0, 2.1541823744773865, -566.340530090034, 7.797691407613456, 127.61286628805101, -0.01600000075995922, -0.03200000151991844, 0.9920000471174717, 0.0, 0.0, 0.0, 0.0, 0.0, 1.7398118985875409E9, 0.0, 2025-02-17 17:04:58.587
39.0, 9.64894188567996, -515.9715574868023, 13.785271236672997, 12.425817602779716, -0.01600000075995922, -0.03200000151991844, 0.9920000471174717, 0.0, 0.0, 0.0, 0.0, 0.0, 1.7398118985875783E9, 0.0, 2025-02-17 17:04:58.587
40.0, 10.243585978634655, -475.85926051205024, 16.53783760406077, -165.0081259449944, -0.01600000075995922, -0.03200000151991844, 0.9920000471174717, 0.0, 0.0, 0.0, 0.0, 0.0, 1.7398118985877783E9, 0.0, 2025-02-17 17:04:58.587
40.0, 5.419115035794675, -462.8799377158284, 10.643755273893476, -30.79246628517285, -0.01600000075995922, -0.03200000151991844, 0.9920000471174717, 0.0, 0.0, 0.0, 0.0, 0.0, 1.7398118985878043E9, 0.0, 2025-02-17 17:04:58.587
41.0, -0.44504809472709894, -571.5670402781107, 7.307764513418078, 141.9179836185649, -0.01600000075995922, -0.03200000151991844, 0.9920000471174717, 0.0, 0.0, 0.0, 0.0, 0.0, 1.7398118986174743E9, 0.0, 2025-02-17 17:04:58.617
41.0, 9.095436692237854, -542.4033004236408, 15.483185816556215, 17.635498241055757, -0.01600000075995922, -0.03200000151991844, 0.9920000471174717, 0.0, 0.0, 0.0, 0.0, 0.0, 1.7398118986175237E9, 0.0, 2025-02-17 17:04:58.617
42.0, 10.191227379254997, -453.87051872257143, 13.194367043673992, -157.76393973082304, -0.01600000075995922, -0.03200000151991844, 0.9920000471174717, 0.0, 0.0, 0.0, 0.0, 0.0, 1.7398118986180112E9, 0.0, 2025-02-17 17:04:58.618
42.0, 11.197260467335582, -482.9332812782377, 13.979746034368873, -34.1471565454267, -0.01600000075995922, -0.03200000151991844, 0.9920000471174717, 0.0, 0.0, 0.0, 0.0, 0.0, 1.7398118986180544E9, 0.0, 2025-02-17 17:04:58.618
43.0, 5.0900038396939635, -574.6337582417764, 6.713120420463383, 137.60213906969875, -0.01600000075995922, -0.03200000151991844, 0.9920000471174717, 0.0, 0.0, 0.0, 0.0, 0.0, 1.7398118986186454E9, 0.0, 2025-02-17 17:04:58.618
43.0, 8.096883404068649, -546.0459629804827, 15.486925716511905, 20.159930711146444, -0.01600000075995922, -0.03200000151991844, 0.9920000471174717, 0.0, 0.0, 0.0, 0.0, 0.0, 1.739811898618676E9, 0.0, 2025-02-17 17:04:58.618
44.0, 12.790457848459482, -476.9980600485578, 15.70010001398623, -163.1531355669722, -0.01600000075995922, -0.03200000151991844, 0.9920000471174717, 0.0, 0.0, 0.0, 0.0, 0.0, 1.7398118986196167E9, 0.0, 2025-02-17 17:04:58.619
44.0, 7.083370516076684, -479.8628234146163, 9.016898793168366, -19.277314321603626, -0.01600000075995922, -0.03200000151991844, 0.9920000471174717, 0.0, 0.0, 0.0, 0.0, 0.0, 1.739811898619646E9, 0.0, 2025-02-17 17:04:58.619
45.0, -2.3187379725277424, -585.5280868127011, 6.2979915253818035, 142.953935906291, -0.01600000075995922, -0.03200000151991844, 0.9920000471174717, 0.0, 0.0, 0.0, 0.0, 0.0, 1.7398118986477692E9, 0.0, 2025-02-17 17:04:58.647
45.0, 9.312350889667869, -558.5559283322655, 12.401508253067732, 21.027587500866503, -0.01600000075995922, -0.03200000151991844, 0.9920000471174717, 0.0, 0.0, 0.0, 0.0, 0.0, 1.7398118986478367E9, 0.0, 2025-02-17 17:04:58.647
46.0, 11.732066160999238, -458.7398684648797, 15.543024215847254, -148.82183893676847, -0.01600000075995922, -0.03200000151991844, 0.9920000471174717, 0.0, 0.0, 0.0, 0.0, 0.0, 1.7398118986480377E9, 0.0, 2025-02-17 17:04:58.648
46.0, 5.041385140269995, -471.87439710926265, 8.803724495694041, -30.968241583090276, -0.01600000075995922, -0.03200000151991844, 0.9920000471174717, 0.0, 0.0, 0.0, 0.0, 0.0, 1.7398118986480749E9, 0.0, 2025-02-17 17:04:58.648
47.0, 1.6231165807694197, -591.5119267418049, 6.926294717937708, 125.58584051206708, -0.01600000075995922, -0.03200000151991844, 0.9920000471174717, 0.0, 0.0, 0.0, 0.0, 0.0, 1.73981189867759E9, 0.0, 2025-02-17 17:04:58.677
47.0, 6.608403221704066, -525.540091523435, 13.848849535919726, 16.132058458868414, -0.01600000075995922, -0.03200000151991844, 0.9920000471174717, 0.0, 0.0, 0.0, 0.0, 0.0, 1.73981189867766E9, 0.0, 2025-02-17 17:04:58.677
48.0, 9.503085787408054, -458.78474726434797, 18.09363598562777, -158.2576065249741, -0.01600000075995922, -0.03200000151991844, 0.9920000471174717, 0.0, 0.0, 0.0, 0.0, 0.0, 1.7398118986779563E9, 0.0, 2025-02-17 17:04:58.677
48.0, 6.993612917140126, -476.5567518537864, 7.913628306239843, -32.77835316164419, -0.01600000075995922, -0.03200000151991844, 0.9920000471174717, 0.0, 0.0, 0.0, 0.0, 0.0, 1.7398118986779854E9, 0.0, 2025-02-17 17:04:58.677
49.0, 2.1093035750091076, -566.9707032325678, 5.306918037123978, 135.79202749114484, -0.01600000075995922, -0.03200000151991844, 0.9920000471174717, 0.0, 0.0, 0.0, 0.0, 0.0, 1.7398118986786609E9, 0.0, 2025-02-17 17:04:58.678
49.0, 3.6015236573293805, -533.4462400297634, 13.070950345136225, 13.944216984789819, -0.01600000075995922, -0.03200000151991844, 0.9920000471174717, 0.0, 0.0, 0.0, 0.0, 0.0, 1.7398118986787052E9, 0.0, 2025-02-17 17:04:58.678
50.0, 11.578730262815952, -448.4289642870426, 19.65317426715046, -161.91896858159453, -0.01600000075995922, -0.03200000151991844, 0.9920000471174717, 0.0, 0.0, 0.0, 0.0, 0.0, 1.7398118986792116E9, 0.0, 2025-02-17 17:04:58.679
50.0, 11.66474796179682, -449.37889887578785, 11.900361659005284, -30.186602492351085, -0.01600000075995922, -0.03200000151991844, 0.9920000471174717, 0.0, 0.0, 0.0, 0.0, 0.0, 1.7398118986792524E9, 0.0, 2025-02-17 17:04:58.679
51.0, -0.6619622921571136, -584.660430022981, 5.882862630300224, 123.14368584100157, -0.01600000075995922, -0.03200000151991844, 0.9920000471174717, 0.0, 0.0, 0.0, 0.0, 0.0, 1.7398118987074575E9, 0.0, 2025-02-17 17:04:58.707
51.0, 5.7744055315852165, -530.8432696606033, 12.999892245978117, 12.66517119994387, -0.01600000075995922, -0.03200000151991844, 0.9920000471174717, 0.0, 0.0, 0.0, 0.0, 0.0, 1.7398118987074971E9, 0.0, 2025-02-17 17:04:58.707
52.0, 10.43806077633053, -440.23110358417034, 18.45640628132969, -159.0392456157133, -0.01600000075995922, -0.03200000151991844, 0.9920000471174717, 0.0, 0.0, 0.0, 0.0, 0.0, 1.73981189870783E9, 0.0, 2025-02-17 17:04:58.707
52.0, 9.619022686034441, -470.5579523248598, 12.8577760476619, -39.18106188578531, -0.01600000075995922, -0.03200000151991844, 0.9920000471174717, 0.0, 0.0, 0.0, 0.0, 0.0, 1.7398118987078643E9, 0.0, 2025-02-17 17:04:58.707
53.0, 2.7675259672105312, -578.6391910943203, 5.2134205382317305, 137.90507096610963, -0.01600000075995922, -0.03200000151991844, 0.9920000471174717, 0.0, 0.0, 0.0, 0.0, 0.0, 1.739811898737995E9, 0.0, 2025-02-17 17:04:58.737
53.0, 6.470026923343539, -532.1746740448289, 9.948133882135153, 18.69015002856031, -0.01600000075995922, -0.03200000151991844, 0.9920000471174717, 0.0, 0.0, 0.0, 0.0, 0.0, 1.7398118987380536E9, 0.0, 2025-02-17 17:04:58.738
54.0, 10.703593673184514, -459.87305815145373, 17.37557519413531, -146.39464386552572, -0.01600000075995922, -0.03200000151991844, 0.9920000471174717, 0.0, 0.0, 0.0, 0.0, 0.0, 1.7398118987385354E9, 0.0, 2025-02-17 17:04:58.738
54.0, 5.4116352358832955, -474.42874877899885, 10.913028070703149, -24.849765255581588, -0.01600000075995922, -0.03200000151991844, 0.9920000471174717, 0.0, 0.0, 0.0, 0.0, 0.0, 1.7398118987386496E9, 0.0, 2025-02-17 17:04:58.738
55.0, 1.2416467852890491, -591.4259090428241, 7.995906105265021, 139.49826834723353, -0.01600000075995922, -0.03200000151991844, 0.9920000471174717, 0.0, 0.0, 0.0, 0.0, 0.0, 1.7398118987388875E9, 0.0, 2025-02-17 17:04:58.738
55.0, 6.6196229215711355, -549.7596836364828, 10.931727570481598, 21.55865329457447, -0.01600000075995922, -0.03200000151991844, 0.9920000471174717, 0.0, 0.0, 0.0, 0.0, 0.0, 1.7398118987389722E9, 0.0, 2025-02-17 17:04:58.738
56.0, 17.28207769524306, -452.64757143706083, 13.901208135299385, -149.26314713153988, -0.01600000075995922, -0.03200000151991844, 0.9920000471174717, 0.0, 0.0, 0.0, 0.0, 0.0, 1.7398118987391784E9, 0.0, 2025-02-17 17:04:58.739
56.0, 6.148395527154207, -477.8507572384551, 13.459899940527976, -24.70764905726537, -0.01600000075995922, -0.03200000151991844, 0.9920000471174717, 0.0, 0.0, 0.0, 0.0, 0.0, 1.7398118987392044E9, 0.0, 2025-02-17 17:04:58.739
57.0, -3.5716044576838613, -574.7197759407572, 6.952474017627537, 139.08687935210764, -0.01600000075995922, -0.03200000151991844, 0.9920000471174717, 0.0, 0.0, 0.0, 0.0, 0.0, 1.7398118987677436E9, 0.0, 2025-02-17 17:04:58.767
57.0, 8.560630998574197, -530.6824539625086, 13.527218139730394, 19.785940715577453, -0.01600000075995922, -0.03200000151991844, 0.9920000471174717, 0.0, 0.0, 0.0, 0.0, 0.0, 1.7398118987678156E9, 0.0, 2025-02-17 17:04:58.767
58.0, 10.699853773228824, -460.3218461461365, 16.43686030525714, -149.8503114245832, -0.01600000075995922, -0.03200000151991844, 0.9920000471174717, 0.0, 0.0, 0.0, 0.0, 0.0, 1.7398118987679331E9, 0.0, 2025-02-17 17:04:58.767
58.0, 7.412481712177396, -467.8203455572948, 14.222839531488717, -12.766148498747498, -0.01600000075995922, -0.03200000151991844, 0.9920000471174717, 0.0, 0.0, 0.0, 0.0, 0.0, 1.7398118987679727E9, 0.0, 2025-02-17 17:04:58.767
59.0, -2.41597537137568, -585.565485812258, 6.608403221704066, 145.41105017717928, -0.01600000075995922, -0.03200000151991844, 0.9920000471174717, 0.0, 0.0, 0.0, 0.0, 0.0, 1.7398118987976336E9, 0.0, 2025-02-17 17:04:58.797
59.0, 6.2979915253818035, -550.8330349237658, 9.63772218581289, 27.13110422855243, -0.01600000075995922, -0.03200000151991844, 0.9920000471174717, 0.0, 0.0, 0.0, 0.0, 0.0, 1.739811898797672E9, 0.0, 2025-02-17 17:04:58.797
60.0, 12.281831454485655, -462.2591143231839, 15.240092319436371, -148.16735644452274, -0.01600000075995922, -0.03200000151991844, 0.9920000471174717, 0.0, 0.0, 0.0, 0.0, 0.0, 1.739811898797959E9, 0.0, 2025-02-17 17:04:58.797
60.0, 6.989873017184436, -474.17069568205625, 11.739545960910618, -14.912851073313504, -0.01600000075995922, -0.03200000151991844, 0.9920000471174717, 0.0, 0.0, 0.0, 0.0, 0.0, 1.7398118987979777E9, 0.0, 2025-02-17 17:04:58.797
61.0, 0.04113889951258898, -591.582984840963, 5.449034235440195, 140.19014983903617, -0.01600000075995922, -0.03200000151991844, 0.9920000471174717, 0.0, 0.0, 0.0, 0.0, 0.0, 1.73981189879851E9, 0.0, 2025-02-17 17:04:58.798
61.0, 3.414528659544885, -536.8944277889095, 13.598276238888502, 19.91309731407091, -0.01600000075995922, -0.03200000151991844, 0.9920000471174717, 0.0, 0.0, 0.0, 0.0, 0.0, 1.7398118987985303E9, 0.0, 2025-02-17 17:04:58.798
62.0, 13.796490936540067, -459.0988988606259, 14.417314329184592, -162.06108477991074, -0.01600000075995922, -0.03200000151991844, 0.9920000471174717, 0.0, 0.0, 0.0, 0.0, 0.0, 1.7398118987992513E9, 0.0, 2025-02-17 17:04:58.799
62.0, 8.620469397865236, -470.9730812199414, 10.501639075577259, -23.282747174147516, -0.01600000075995922, -0.03200000151991844, 0.9920000471174717, 0.0, 0.0, 0.0, 0.0, 0.0, 1.7398118987993343E9, 0.0, 2025-02-17 17:04:58.799
63.0, 2.1504424745216966, -586.5528194005601, 4.1251096511259675, 136.22959578596056, -0.01600000075995922, -0.03200000151991844, 0.9920000471174717, 0.0, 0.0, 0.0, 0.0, 0.0, 1.7398118988279228E9, 0.0, 2025-02-17 17:04:58.827
63.0, 9.084216992370784, -553.7763361888938, 12.06491725705564, 13.783401286695153, -0.01600000075995922, -0.03200000151991844, 0.9920000471174717, 0.0, 0.0, 0.0, 0.0, 0.0, 1.7398118988279943E9, 0.0, 2025-02-17 17:04:58.827
64.0, 13.2654251428321, -431.1020077923313, 15.363509017974138, -152.17652919702232, -0.01600000075995922, -0.03200000151991844, 0.9920000471174717, 0.0, 0.0, 0.0, 0.0, 0.0, 1.739811898828215E9, 0.0, 2025-02-17 17:04:58.828
64.0, 6.384009224362671, -450.957136657089, 12.296791054308414, -25.728641745168716, -0.01600000075995922, -0.03200000151991844, 0.9920000471174717, 0.0, 0.0, 0.0, 0.0, 0.0, 1.739811898828239E9, 0.0, 2025-02-17 17:04:58.828
65.0, 0.13837629836052656, -594.8292180025019, 4.308364748954773, 126.01966890692711, -0.01600000075995922, -0.03200000151991844, 0.9920000471174717, 0.0, 0.0, 0.0, 0.0, 0.0, 1.7398118988583086E9, 0.0, 2025-02-17 17:04:58.858
65.0, 9.185194291174412, -546.6630464731716, 15.991812210530043, 13.91055788518861, -0.01600000075995922, -0.03200000151991844, 0.9920000471174717, 0.0, 0.0, 0.0, 0.0, 0.0, 1.7398118988583996E9, 0.0, 2025-02-17 17:04:58.858
66.0, 10.628795674070716, -437.8338277125731, 13.377622141502798, -152.34482469502836, -0.01600000075995922, -0.03200000151991844, 0.9920000471174717, 0.0, 0.0, 0.0, 0.0, 0.0, 1.739811898858719E9, 0.0, 2025-02-17 17:04:58.858
66.0, 8.381115800701082, -477.0130196483806, 8.317537501454353, -25.668803345877677, -0.01600000075995922, -0.03200000151991844, 0.9920000471174717, 0.0, 0.0, 0.0, 0.0, 0.0, 1.739811898858771E9, 0.0, 2025-02-17 17:04:58.858
67.0, 0.5422854935750365, -590.401176454965, 11.339376665651798, 138.72036915645003, -0.01600000075995922, -0.03200000151991844, 0.9920000471174717, 0.0, 0.0, 0.0, 0.0, 0.0, 1.7398118988589725E9, 0.0, 2025-02-17 17:04:58.858
67.0, 7.038491716608405, -545.3765208884142, 10.415621376596391, 18.77242782758549, -0.01600000075995922, -0.03200000151991844, 0.9920000471174717, 0.0, 0.0, 0.0, 0.0, 0.0, 1.7398118988590655E9, 0.0, 2025-02-17 17:04:58.859
68.0, 14.09942283295095, -452.01552834454924, 14.780084624886513, -152.19522869680077, -0.01600000075995922, -0.03200000151991844, 0.9920000471174717, 0.0, 0.0, 0.0, 0.0, 0.0, 1.739811898859488E9, 0.0, 2025-02-17 17:04:58.859
